timestamps,TP9,AF7,AF8,TP10,Right AUX,Marker0
1542731948.268,-18.066,-246.094,28.809,-12.207,0.000,0
1542731948.272,-19.531,-417.969,35.645,-10.742,0.000,0
1542731948.276,-15.625,-447.266,33.691,-9.277,0.000,0
1542731948.280,-12.695,-341.309,28.809,-14.648,0.000,0
1542731948.284,-18.066,-268.066,27.832,-16.602,0.000,0
1542731948.288,-12.695,-575.195,32.227,-11.230,0.000,0
1542731948.292,-6.348,-836.426,35.156,-9.277,0.000,0
1542731948.296,3.906,-431.641,35.156,-0.977,0.000,0
1542731948.300,22.461,-227.051,28.809,4.883,0.000,0
1542731948.304,25.391,-380.859,13.672,1.953,0.000,0
1542731948.307,11.719,-571.289,28.320,0.000,0.000,0
1542731948.311,9.277,-454.590,49.805,-1.953,0.000,0
1542731948.315,16.113,-306.152,40.039,7.812,0.000,0
1542731948.319,18.555,-415.527,38.574,27.832,0.000,0
1542731948.323,27.832,-431.152,45.410,40.039,0.000,0
1542731948.327,41.992,-312.012,45.898,46.875,0.000,0
1542731948.331,54.688,-376.953,51.758,66.406,0.000,0
1542731948.335,70.801,-585.449,57.617,84.961,0.000,0
1542731948.339,86.914,-594.727,60.059,91.797,0.000,0
1542731948.343,102.539,-409.180,60.059,107.910,0.000,0
1542731948.347,107.422,-406.250,57.129,122.070,0.000,0
1542731948.350,106.934,-702.637,55.176,115.234,0.000,0
1542731948.354,111.816,-633.301,48.828,115.234,0.000,0
1542731948.358,118.652,-360.352,46.387,128.906,0.000,0
1542731948.362,125.000,-464.844,44.922,131.836,0.000,0
1542731948.366,123.047,-682.129,41.504,119.629,0.000,0
1542731948.370,115.723,-631.836,46.875,110.840,0.000,0
1542731948.374,106.934,-401.367,53.223,118.652,0.000,0
1542731948.378,100.098,-448.730,44.922,115.234,0.000,0
1542731948.382,93.750,-640.137,36.133,100.586,0.000,0
1542731948.386,92.285,-634.277,37.109,95.703,0.000,0
1542731948.389,88.867,-390.137,39.062,90.332,0.000,0
1542731948.393,90.332,-578.613,36.621,86.914,0.000,0
1542731948.397,89.355,-826.660,41.016,95.215,0.000,0
1542731948.401,83.496,-398.926,45.898,92.773,0.000,0
1542731948.405,84.473,-258.789,48.340,81.055,0.000,0
1542731948.409,80.078,-401.367,49.316,77.148,0.000,0
1542731948.413,76.172,-383.789,40.039,74.707,0.000,0
1542731948.417,75.195,-284.180,31.738,75.684,0.000,0
1542731948.421,71.289,-325.195,32.227,75.684,0.000,0
1542731948.425,75.684,-462.402,35.645,73.242,0.000,0
1542731948.429,72.266,-622.559,39.062,73.730,0.000,0
1542731948.432,62.012,-656.250,42.969,74.707,0.000,0
1542731948.436,68.359,-491.211,41.992,67.871,0.000,0
1542731948.440,69.336,-713.867,36.621,62.012,0.000,0
1542731948.444,66.406,-656.738,31.738,54.199,0.000,0
1542731948.448,62.500,-269.043,28.320,46.875,0.000,0
1542731948.452,56.152,-417.969,31.250,47.363,0.000,0
1542731948.456,58.594,-467.773,32.227,52.734,0.000,0
1542731948.460,59.570,-270.508,30.762,55.176,0.000,0
1542731948.464,58.105,-212.891,29.785,53.711,0.000,0
1542731948.468,57.617,-353.516,30.762,48.340,0.000,0
1542731948.472,54.688,-416.992,31.250,47.363,0.000,0
1542731948.475,48.828,-513.184,26.855,44.922,0.000,0
1542731948.479,47.363,-478.516,30.762,46.875,0.000,0
1542731948.483,42.969,-572.266,33.691,41.992,0.000,0
1542731948.487,39.062,-848.145,31.738,37.109,0.000,0
1542731948.491,40.039,-471.680,27.344,44.434,0.000,0
1542731948.495,54.199,-300.781,25.391,59.082,0.000,0
1542731948.499,41.504,-477.051,35.156,45.410,0.000,0
1542731948.503,-7.812,-436.035,41.992,-5.859,0.000,0
1542731948.507,-35.645,-320.801,41.504,-32.227,0.000,0
1542731948.511,-51.758,-382.324,47.363,-43.945,0.000,0
1542731948.514,-74.707,-489.746,51.270,-74.707,0.000,0
1542731948.518,-105.957,-535.645,48.340,-109.375,0.000,0
1542731948.522,-138.184,-614.746,41.504,-134.277,0.000,0
1542731948.526,-145.508,-561.035,41.504,-138.184,0.000,0
1542731948.530,-147.461,-745.605,41.992,-149.414,0.000,0
1542731948.534,-161.133,-734.375,36.133,-168.457,0.000,0
1542731948.538,-161.133,-446.289,38.086,-156.738,0.000,0
1542731948.542,-155.273,-483.887,41.992,-153.320,0.000,0
1542731948.546,-155.762,-659.668,35.156,-159.180,0.000,0
1542731948.550,-150.391,-659.180,32.715,-146.973,0.000,0
1542731948.554,-138.184,-435.547,29.785,-131.348,0.000,0
1542731948.557,-127.441,-515.137,25.391,-112.793,0.000,0
1542731948.561,-114.746,-566.406,24.414,-99.609,0.000,0
1542731948.565,-91.797,-474.609,21.973,-83.496,0.000,0
1542731948.569,-68.359,-579.102,20.508,-66.406,0.000,0
1542731948.573,-56.152,-788.574,18.066,-66.406,0.000,0
1542731948.577,-47.363,-842.773,15.625,-58.105,0.000,0
1542731948.581,-41.504,-470.215,22.949,-37.109,0.000,0
1542731948.585,-43.457,-391.602,23.438,-35.645,0.000,0
1542731948.589,-44.434,-576.660,22.461,-39.062,0.000,0
1542731948.593,-38.086,-552.246,26.855,-29.297,0.000,0
1542731948.597,-28.809,-420.898,22.949,-21.484,0.000,0
1542731948.600,-29.297,-399.902,16.602,-15.625,0.000,0
1542731948.604,-28.809,-519.531,17.578,-8.789,0.000,0
1542731948.608,-21.484,-626.465,17.578,-4.395,0.000,0
1542731948.612,-9.277,-466.309,14.160,-4.883,0.000,0
1542731948.616,-5.859,-524.414,14.160,-8.789,0.000,0
1542731948.620,-10.254,-853.027,14.648,-12.695,0.000,0
1542731948.624,-2.930,-672.363,19.043,0.000,0.000,0
1542731948.628,2.441,-240.234,26.367,6.836,0.000,0
1542731948.632,-2.441,-326.172,20.996,3.418,0.000,0
1542731948.636,-4.883,-441.895,17.578,7.324,0.000,0
1542731948.639,4.883,-296.387,21.484,7.812,0.000,0
1542731948.643,9.766,-200.684,22.949,9.766,0.000,0
1542731948.647,5.371,-303.223,25.391,18.066,0.000,0
1542731948.651,10.742,-423.828,24.902,16.113,0.000,0
1542731948.655,16.602,-318.359,22.461,13.672,0.000,0
1542731948.659,17.578,-194.824,19.531,13.672,0.000,0
1542731948.663,19.043,-535.645,21.484,7.324,0.000,0
1542731948.667,13.672,-835.449,24.414,9.277,0.000,0
1542731948.671,11.719,-436.035,23.926,15.137,0.000,0
1542731948.675,14.648,-229.980,32.227,15.625,0.000,0
1542731948.679,18.066,-345.215,36.621,11.719,0.000,0
1542731948.682,19.531,-346.680,34.668,9.766,0.000,0
1542731948.686,18.555,-298.340,35.156,9.277,0.000,0
1542731948.690,16.113,-332.031,34.180,5.859,0.000,0
1542731948.694,10.742,-418.945,30.762,0.977,0.000,0
1542731948.698,17.090,-389.648,34.180,4.395,0.000,0
1542731948.702,22.949,-267.578,36.621,5.371,0.000,0
1542731948.706,21.484,-299.316,29.785,5.371,0.000,0
1542731948.710,18.066,-553.223,25.879,13.184,0.000,0
1542731948.714,14.160,-586.426,28.809,20.996,0.000,0
1542731948.718,15.137,-316.895,32.227,17.090,0.000,0
1542731948.722,14.648,-317.871,34.180,3.906,0.000,0
1542731948.725,4.883,-643.066,34.180,3.906,0.000,0
1542731948.729,0.977,-512.207,31.250,7.324,0.000,0
1542731948.733,2.441,-213.379,27.832,3.906,0.000,0
1542731948.737,-0.977,-362.793,27.832,2.930,0.000,0
1542731948.741,-3.906,-376.953,23.926,7.324,0.000,0
1542731948.745,6.836,-233.887,18.555,13.184,0.000,0
1542731948.749,17.578,-183.594,17.578,18.555,0.000,0
1542731948.753,23.438,-363.281,19.531,26.367,0.000,0
1542731948.757,18.066,-595.703,23.926,23.438,0.000,0
1542731948.761,5.859,-545.410,22.461,17.090,0.000,0
1542731948.764,10.254,-297.363,20.996,22.461,0.000,0
1542731948.768,20.508,-441.895,26.367,20.508,0.000,0
1542731948.772,22.949,-672.852,33.691,15.137,0.000,0
1542731948.776,23.926,-320.312,35.156,23.438,0.000,0
1542731948.780,25.879,-171.875,36.133,29.297,0.000,0
1542731948.784,37.598,-329.590,41.992,44.922,0.000,0
1542731948.788,27.344,-358.398,38.574,29.785,0.000,0
1542731948.792,-7.324,-177.246,35.645,-9.277,0.000,0
1542731948.796,-26.855,-189.453,40.527,-24.902,0.000,0
1542731948.800,-36.133,-293.457,40.527,-32.227,0.000,0
1542731948.804,-38.574,-468.750,38.574,-43.945,0.000,0
1542731948.807,-36.621,-486.816,41.992,-44.434,0.000,0
1542731948.811,-39.062,-309.082,39.062,-44.922,0.000,0
1542731948.815,-47.363,-592.773,34.668,-56.152,0.000,0
1542731948.819,-46.875,-510.254,34.668,-63.477,0.000,0
1542731948.823,-46.387,-81.055,32.227,-72.266,0.000,0
1542731948.827,-58.105,-204.102,29.297,-72.754,0.000,0
1542731948.831,-60.059,-266.602,23.926,-58.105,0.000,0
1542731948.835,-48.828,-138.672,20.020,-49.805,0.000,0
1542731948.839,-42.480,-62.012,18.066,-36.621,0.000,0
1542731948.843,-36.133,-236.816,20.996,-18.555,0.000,0
1542731948.847,-33.203,-497.070,20.020,-18.555,0.000,0
1542731948.850,-29.297,-456.543,11.719,-21.484,0.000,0
1542731948.854,-30.273,-321.289,12.207,-24.414,0.000,0
1542731948.858,-30.273,-465.332,17.578,-20.508,0.000,0
1542731948.862,-22.949,-638.672,19.043,-18.066,0.000,0
1542731948.866,-17.090,-293.945,19.531,-20.508,0.000,0
1542731948.870,-11.230,-128.906,20.996,-9.277,0.000,0
1542731948.874,-14.160,-276.855,20.996,-3.418,0.000,0
1542731948.878,-8.789,-247.559,16.113,-3.906,0.000,0
1542731948.882,-7.812,-156.738,10.742,-0.488,0.000,0
1542731948.886,-7.324,-222.656,11.719,1.465,0.000,0
1542731948.889,1.465,-348.145,14.160,3.418,0.000,0
1542731948.893,1.953,-308.594,21.484,7.812,0.000,0
1542731948.897,4.395,-354.980,29.297,11.230,0.000,0
1542731948.901,0.977,-353.027,29.785,10.742,0.000,0
1542731948.905,-2.441,-615.234,33.203,2.930,0.000,0
1542731948.909,4.883,-580.566,37.109,11.719,0.000,0
1542731948.913,13.184,-166.992,37.109,19.531,0.000,0
1542731948.917,14.648,-284.668,31.250,15.137,0.000,0
1542731948.921,12.207,-405.273,26.855,19.043,0.000,0
1542731948.925,14.160,-259.277,27.832,18.555,0.000,0
1542731948.929,10.742,-152.832,21.484,11.230,0.000,0
1542731948.932,7.812,-318.848,21.484,13.184,0.000,0
1542731948.936,4.395,-394.531,29.297,13.672,0.000,0
1542731948.940,7.812,-251.465,32.227,12.207,0.000,0
1542731948.944,16.602,-387.695,35.156,19.043,0.000,0
1542731948.948,21.973,-684.082,38.086,11.230,0.000,0
1542731948.952,14.160,-754.883,36.133,1.465,0.000,0
1542731948.956,10.742,-404.297,33.691,6.348,0.000,0
1542731948.960,15.625,-206.543,32.227,13.672,0.000,0
1542731948.964,6.348,-385.254,28.320,7.812,0.000,0
1542731948.968,1.953,-469.238,28.320,5.371,0.000,0
1542731948.972,10.254,-231.934,28.809,12.695,0.000,0
1542731948.975,14.648,-164.551,23.438,14.648,0.000,0
1542731948.979,0.000,-272.949,26.855,12.207,0.000,0
1542731948.983,-0.488,-288.086,28.320,14.160,0.000,0
1542731948.987,7.324,-222.168,27.832,25.391,0.000,0
1542731948.991,-1.465,-383.789,30.762,20.508,0.000,0
1542731948.995,-5.371,-721.191,25.391,11.719,0.000,0
1542731948.999,4.395,-629.883,21.484,21.484,0.000,0
1542731949.003,13.672,-272.949,20.020,21.973,0.000,0
1542731949.007,16.602,-326.660,22.461,13.184,0.000,0
1542731949.011,21.484,-405.273,30.273,20.508,0.000,0
1542731949.014,29.297,-236.816,36.133,33.203,0.000,0
1542731949.018,31.250,-156.738,32.227,40.039,0.000,0
1542731949.022,27.832,-312.988,27.832,35.645,0.000,0
1542731949.026,26.855,-455.566,31.250,26.367,0.000,0
1542731949.030,20.996,-322.754,33.691,27.832,0.000,0
1542731949.034,20.996,-146.973,34.180,30.762,0.000,0
1542731949.038,24.414,-489.258,35.156,26.367,0.000,0
1542731949.042,20.996,-754.395,39.062,24.414,0.000,0
1542731949.046,16.113,-338.379,34.180,19.531,0.000,0
1542731949.050,14.648,-111.328,24.414,8.301,0.000,0
1542731949.054,14.160,-251.953,21.484,6.836,0.000,0
1542731949.057,11.230,-352.539,22.461,11.230,0.000,0
1542731949.061,10.742,-188.477,25.879,14.160,0.000,0
1542731949.065,14.648,-164.062,33.203,19.043,0.000,0
1542731949.069,7.324,-270.020,35.156,19.043,0.000,0
1542731949.073,5.859,-291.016,35.156,12.695,0.000,0
1542731949.077,14.648,-244.141,41.016,18.066,0.000,0
1542731949.081,21.484,-196.777,38.574,28.809,0.000,0
1542731949.085,11.230,-468.750,34.180,24.902,0.000,0
1542731949.089,0.977,-562.012,29.785,13.184,0.000,0
1542731949.093,12.207,-289.551,25.391,7.324,0.000,0
1542731949.097,17.090,-297.852,23.926,8.789,0.000,0
1542731949.100,16.602,-608.887,24.902,10.254,0.000,0
1542731949.104,23.926,-483.887,30.762,20.020,0.000,0
1542731949.108,21.973,-234.375,31.250,23.438,0.000,0
1542731949.112,15.137,-409.668,31.250,19.531,0.000,0
1542731949.116,15.137,-504.395,29.785,17.090,0.000,0
1542731949.120,7.812,-325.684,25.879,12.207,0.000,0
1542731949.124,4.883,-253.418,28.809,10.254,0.000,0
1542731949.128,1.953,-404.785,28.320,10.742,0.000,0
1542731949.132,-0.488,-562.988,25.879,11.719,0.000,0
1542731949.136,6.348,-629.395,26.367,21.484,0.000,0
1542731949.139,2.930,-458.496,29.297,19.531,0.000,0
1542731949.143,-5.371,-621.582,35.645,6.348,0.000,0
1542731949.147,-5.859,-833.496,37.109,-3.418,0.000,0
1542731949.151,-7.324,-448.730,41.016,-1.953,0.000,0
1542731949.155,-3.418,-331.055,39.062,7.324,0.000,0
1542731949.159,-3.906,-465.820,33.203,7.324,0.000,0
1542731949.163,-5.859,-418.945,31.738,2.441,0.000,0
1542731949.167,-5.371,-289.551,29.785,-1.953,0.000,0
1542731949.171,-10.254,-325.684,29.297,-1.953,0.000,0
1542731949.175,-14.160,-445.801,34.668,2.930,0.000,0
1542731949.179,-6.836,-636.230,38.086,7.812,0.000,0
1542731949.182,-7.812,-558.105,37.109,4.883,0.000,0
1542731949.186,-19.531,-377.441,37.109,1.465,0.000,0
1542731949.190,-16.113,-732.910,35.156,0.000,0.000,0
1542731949.194,-12.695,-670.410,36.133,8.789,0.000,0
1542731949.198,-15.137,-243.652,38.574,19.043,0.000,0
1542731949.202,-2.930,-335.938,36.133,24.902,0.000,0
1542731949.206,10.742,-462.891,31.738,31.250,0.000,0
1542731949.210,9.277,-321.777,28.320,19.043,0.000,0
1542731949.214,2.930,-247.070,36.621,6.836,0.000,0
1542731949.218,1.953,-414.551,43.945,8.789,0.000,0
1542731949.222,26.855,-521.973,47.852,45.410,0.000,0
1542731949.225,56.152,-589.844,40.039,79.102,0.000,0
1542731949.229,59.082,-513.672,33.203,72.754,0.000,0
1542731949.233,62.988,-604.004,40.039,74.707,0.000,0
1542731949.237,74.219,-850.586,43.457,85.449,0.000,0
1542731949.241,85.449,-477.539,45.898,89.355,0.000,0
1542731949.245,93.262,-329.102,44.434,92.773,0.000,0
1542731949.249,96.680,-463.867,49.805,101.074,0.000,0
1542731949.253,97.656,-438.965,59.082,106.445,0.000,0
1542731949.257,93.750,-311.523,62.988,111.328,0.000,0
1542731949.261,87.402,-322.266,66.406,118.164,0.000,0
1542731949.264,86.426,-501.465,65.430,121.582,0.000,0
1542731949.268,87.891,-524.414,59.570,118.164,0.000,0
1542731949.272,83.984,-520.020,54.199,104.004,0.000,0
1542731949.276,84.961,-430.664,45.410,96.680,0.000,0
1542731949.280,82.520,-672.363,41.016,96.680,0.000,0
1542731949.284,65.430,-709.473,39.062,95.215,0.000,0
1542731949.288,50.293,-284.668,33.203,86.914,0.000,0
1542731949.292,58.105,-378.906,32.227,73.242,0.000,0
1542731949.296,66.895,-454.590,33.691,70.312,0.000,0
1542731949.300,62.988,-331.055,36.621,72.266,0.000,0
1542731949.304,57.617,-305.176,37.109,73.242,0.000,0
1542731949.307,58.105,-390.137,35.645,71.289,0.000,0
1542731949.311,55.176,-393.555,37.598,69.824,0.000,0
1542731949.315,52.246,-306.152,40.039,70.801,0.000,0
1542731949.319,53.223,-409.180,43.457,75.684,0.000,0
1542731949.323,50.293,-592.285,43.945,73.242,0.000,0
1542731949.327,53.711,-749.512,43.457,70.801,0.000,0
1542731949.331,49.316,-463.867,39.062,58.594,0.000,0
1542731949.335,42.480,-315.918,34.668,56.152,0.000,0
1542731949.339,43.945,-395.508,35.156,61.523,0.000,0
1542731949.343,41.016,-459.473,33.203,55.176,0.000,0
1542731949.347,37.598,-378.418,29.785,55.176,0.000,0
1542731949.350,32.227,-383.789,33.203,48.340,0.000,0
1542731949.354,30.762,-505.859,41.992,44.922,0.000,0
1542731949.358,35.645,-491.211,45.410,51.270,0.000,0
1542731949.362,38.086,-417.480,41.504,56.641,0.000,0
1542731949.366,35.156,-576.172,33.691,42.480,0.000,0
1542731949.370,34.668,-890.137,32.227,31.738,0.000,0
1542731949.374,26.855,-748.535,27.344,38.574,0.000,0
1542731949.378,26.855,-414.062,24.414,46.875,0.000,0
1542731949.382,32.227,-484.863,29.785,47.363,0.000,0
1542731949.386,34.180,-578.613,29.785,46.387,0.000,0
1542731949.389,37.109,-461.426,27.832,55.176,0.000,0
1542731949.393,30.762,-378.418,30.762,51.270,0.000,0
1542731949.397,16.602,-473.145,35.156,37.598,0.000,0
1542731949.401,9.277,-511.230,34.180,33.691,0.000,0
1542731949.405,12.695,-360.352,31.250,37.109,0.000,0
1542731949.409,14.160,-236.328,30.273,41.504,0.000,0
1542731949.413,22.461,-539.062,27.832,42.969,0.000,0
1542731949.417,24.902,-800.293,25.391,40.039,0.000,0
1542731949.421,13.672,-421.875,26.367,27.832,0.000,0
1542731949.425,13.672,-211.426,27.344,27.832,0.000,0
1542731949.429,8.301,-303.223,28.809,37.598,0.000,0
1542731949.432,6.348,-319.824,25.391,46.387,0.000,0
1542731949.436,19.531,-214.355,15.137,45.410,0.000,0
1542731949.440,16.602,-188.965,14.160,25.391,0.000,0
1542731949.444,11.230,-269.043,25.879,18.066,0.000,0
1542731949.448,6.836,-234.375,26.367,18.066,0.000,0
1542731949.452,2.930,-127.930,24.414,19.531,0.000,0
1542731949.456,9.277,-97.656,28.320,23.438,0.000,0
1542731949.460,9.277,-349.609,28.809,18.066,0.000,0
1542731949.464,5.859,-356.934,30.273,15.137,0.000,0
1542731949.468,4.883,-151.367,33.691,16.602,0.000,0
1542731949.472,7.324,-209.961,29.297,12.207,0.000,0
1542731949.475,14.648,-513.184,25.879,11.230,0.000,0
1542731949.479,18.555,-429.688,29.297,25.391,0.000,0
1542731949.483,21.484,-85.938,25.879,27.832,0.000,0
1542731949.487,18.066,-171.387,18.066,17.090,0.000,0
1542731949.491,9.766,-300.293,23.926,11.230,0.000,0
1542731949.495,6.348,-180.176,28.320,16.113,0.000,0
1542731949.499,17.090,-92.773,29.785,27.832,0.000,0
1542731949.503,21.973,-287.598,34.668,33.691,0.000,0
1542731949.507,12.695,-512.695,32.715,23.926,0.000,0
1542731949.511,11.719,-492.188,32.715,21.973,0.000,0
1542731949.514,6.836,-264.648,33.691,25.391,0.000,0
1542731949.518,2.441,-422.363,32.227,25.879,0.000,0
1542731949.522,5.859,-675.293,37.598,23.438,0.000,0
1542731949.526,4.883,-277.832,35.645,18.555,0.000,0
1542731949.530,9.766,-123.535,29.785,22.949,0.000,0
1542731949.534,15.625,-215.820,31.250,28.809,0.000,0
1542731949.538,2.930,-201.660,28.809,13.184,0.000,0
1542731949.542,-2.930,-138.672,28.320,3.906,0.000,0
1542731949.546,6.348,-184.570,31.738,8.789,0.000,0
1542731949.550,9.277,-338.867,34.180,9.277,0.000,0
1542731949.554,11.719,-520.020,39.062,9.766,0.000,0
1542731949.557,12.695,-636.719,39.062,-2.930,0.000,0
1542731949.561,10.742,-698.730,33.203,-16.602,0.000,0
1542731949.565,3.906,-899.902,33.203,-22.461,0.000,0
1542731949.569,11.719,-884.277,32.715,-7.324,0.000,0
1542731949.573,18.555,-721.680,30.762,-9.277,0.000,0
1542731949.577,-21.484,-861.328,36.133,-51.758,0.000,0
1542731949.581,-41.992,-984.375,43.457,-74.219,0.000,0
1542731949.585,-37.109,-968.750,51.270,-74.219,0.000,0
1542731949.589,-56.641,-971.191,50.781,-86.426,0.000,0
1542731949.593,-73.730,-973.145,47.852,-97.656,0.000,0
1542731949.597,-68.848,-972.656,51.758,-100.586,0.000,0
1542731949.600,-67.871,-972.656,53.223,-100.098,0.000,0
1542731949.604,-65.430,-972.656,49.316,-85.938,0.000,0
1542731949.608,-60.059,-972.656,47.852,-86.426,0.000,0
1542731949.612,-60.547,-972.656,49.805,-89.355,0.000,0
1542731949.616,-56.641,-972.656,40.527,-75.195,0.000,0
1542731949.620,-57.617,-973.145,31.250,-63.477,0.000,0
1542731949.624,-55.176,-972.656,26.855,-61.035,0.000,0
1542731949.628,-36.133,-973.145,26.855,-51.270,0.000,0
1542731949.632,-22.461,-972.656,32.715,-39.551,0.000,0
1542731949.636,-30.273,-972.656,28.809,-41.504,0.000,0
1542731949.639,-34.180,-972.656,22.461,-37.598,0.000,0
1542731949.643,-28.809,-972.656,22.949,-34.668,0.000,0
1542731949.647,-30.273,-972.656,28.809,-42.969,0.000,0
1542731949.651,-35.645,-972.656,26.855,-43.945,0.000,0
1542731949.655,-33.203,-972.656,18.066,-36.621,0.000,0
1542731949.659,-24.902,-973.145,20.020,-27.344,0.000,0
1542731949.663,-17.578,-972.656,28.320,-14.160,0.000,0
1542731949.667,-13.672,-973.145,29.785,-5.859,0.000,0
1542731949.671,-16.113,-973.145,29.297,-8.789,0.000,0
1542731949.675,-10.254,-972.656,29.785,0.488,0.000,0
1542731949.679,-3.418,-972.656,29.785,14.648,0.000,0
1542731949.682,-9.766,-973.145,29.785,12.207,0.000,0
1542731949.686,-13.184,-973.145,24.414,8.789,0.000,0
1542731949.690,-10.254,-973.633,21.484,15.625,0.000,0
1542731949.694,-10.742,-967.285,25.391,20.996,0.000,0
1542731949.698,-11.719,-978.027,23.438,17.090,0.000,0
1542731949.702,-5.859,-937.500,23.926,14.160,0.000,0
1542731949.706,-3.906,-734.863,20.996,13.184,0.000,0
1542731949.710,-4.395,-631.836,17.578,11.230,0.000,0
1542731949.714,-3.418,-775.391,21.484,14.648,0.000,0
1542731949.718,3.906,-701.660,28.320,24.902,0.000,0
1542731949.722,-6.348,-496.582,34.180,15.137,0.000,0
1542731949.725,-18.066,-491.211,28.809,-0.488,0.000,0
1542731949.729,-3.418,-575.684,26.855,12.695,0.000,0
1542731949.733,2.930,-493.652,31.250,21.973,0.000,0
1542731949.737,-5.859,-353.516,29.297,21.484,0.000,0
1542731949.741,0.000,-475.098,31.250,27.832,0.000,0
1542731949.745,5.371,-817.383,33.691,24.902,0.000,0
1542731949.749,-10.254,-683.105,28.809,16.113,0.000,0
1542731949.753,-22.949,-261.230,19.043,14.160,0.000,0
1542731949.757,-13.184,-310.059,18.555,12.695,0.000,0
1542731949.761,-3.906,-409.668,24.902,18.066,0.000,0
1542731949.764,-6.348,-320.312,29.297,19.531,0.000,0
1542731949.768,-4.395,-145.996,27.344,15.137,0.000,0
1542731949.772,-2.441,-259.766,19.043,13.184,0.000,0
1542731949.776,-8.301,-371.582,19.531,16.113,0.000,0
1542731949.780,-2.930,-271.973,30.762,28.809,0.000,0
1542731949.784,4.883,-237.305,35.156,35.645,0.000,0
1542731949.788,-7.812,-513.672,31.738,17.578,0.000,0
1542731949.792,-14.160,-745.117,33.691,11.719,0.000,0
1542731949.796,-11.719,-398.926,35.645,22.461,0.000,0
1542731949.800,-17.090,-280.273,36.133,21.973,0.000,0
1542731949.804,-17.578,-430.664,34.180,12.695,0.000,0
1542731949.807,-23.438,-435.547,31.250,3.418,0.000,0
1542731949.811,-21.484,-264.648,34.180,6.348,0.000,0
1542731949.815,-15.625,-210.938,39.062,5.371,0.000,0
1542731949.819,-22.461,-378.418,37.598,-6.348,0.000,0
1542731949.823,-33.691,-407.715,34.180,-15.625,0.000,0
1542731949.827,-34.180,-292.969,43.457,-21.484,0.000,0
1542731949.831,-21.484,-344.238,57.617,-6.836,0.000,0
1542731949.835,-30.762,-555.664,60.059,-6.836,0.000,0
1542731949.839,-50.781,-515.625,57.129,-29.785,0.000,0
1542731949.843,-58.594,-340.332,54.688,-32.715,0.000,0
1542731949.847,-62.500,-435.059,76.172,-40.527,0.000,0
1542731949.850,-86.914,-772.949,91.309,-75.195,0.000,0
1542731949.854,-115.723,-722.168,88.867,-101.562,0.000,0
1542731949.858,-120.117,-450.195,98.145,-100.586,0.000,0
1542731949.862,-134.277,-649.414,107.422,-117.188,0.000,0
1542731949.866,-162.109,-792.969,117.676,-158.691,0.000,0
1542731949.870,-171.387,-624.512,130.371,-167.480,0.000,0
1542731949.874,-174.316,-577.637,134.277,-168.945,0.000,0
1542731949.878,-182.617,-770.020,134.766,-188.965,0.000,0
1542731949.882,-185.059,-996.094,137.695,-191.406,0.000,0
1542731949.886,-189.941,-816.406,129.883,-186.035,0.000,0
1542731949.889,-186.523,-537.598,124.512,-187.012,0.000,0
1542731949.893,-183.105,-761.719,123.535,-183.594,0.000,0
1542731949.897,-203.613,-910.156,125.000,-185.547,0.000,0
1542731949.901,-203.125,-663.574,128.906,-175.781,0.000,0
1542731949.905,-183.105,-624.023,125.488,-162.109,0.000,0
1542731949.909,-175.781,-706.543,122.559,-148.926,0.000,0
1542731949.913,-162.109,-697.754,110.352,-128.418,0.000,0
1542731949.917,-149.902,-588.867,94.238,-117.676,0.000,0
1542731949.921,-150.391,-627.441,96.191,-105.957,0.000,0
1542731949.925,-119.141,-716.309,98.145,-70.312,0.000,0
1542731949.929,-89.844,-758.301,95.215,-47.363,0.000,0
1542731949.932,-84.961,-727.539,89.844,-36.621,0.000,0
1542731949.936,-55.176,-459.961,71.289,-9.277,0.000,0
1542731949.940,-44.922,-654.785,56.641,-3.418,0.000,0
1542731949.944,-32.715,-665.039,54.199,8.301,0.000,0
1542731949.948,-1.953,-199.707,48.340,33.203,0.000,0
1542731949.952,10.742,-191.406,40.039,33.691,0.000,0
1542731949.956,24.414,-358.887,31.738,38.086,0.000,0
1542731949.960,38.086,-218.262,27.344,56.152,0.000,0
1542731949.964,41.504,-147.461,32.227,59.082,0.000,0
1542731949.968,47.852,-278.809,31.738,55.664,0.000,0
1542731949.972,57.617,-270.996,21.484,69.336,0.000,0
1542731949.975,59.082,-371.582,14.160,74.219,0.000,0
1542731949.979,57.129,-435.547,9.766,70.312,0.000,0
1542731949.983,61.523,-507.324,2.930,74.219,0.000,0
1542731949.987,71.777,-598.145,0.000,76.660,0.000,0
1542731949.991,67.871,-306.152,-1.465,81.055,0.000,0
1542731949.995,66.406,-144.043,1.953,82.520,0.000,0
1542731949.999,68.359,-191.406,6.836,83.496,0.000,0
1542731950.003,77.148,-218.262,4.395,78.125,0.000,0
1542731950.007,85.449,-93.750,-5.371,74.219,0.000,0
1542731950.011,77.148,-108.398,-0.488,78.125,0.000,0
1542731950.014,70.312,-233.887,5.371,80.566,0.000,0
1542731950.018,74.219,-212.402,-2.441,80.566,0.000,0
1542731950.022,72.266,-311.523,0.488,84.961,0.000,0
1542731950.026,56.152,-252.930,0.488,83.496,0.000,0
1542731950.030,52.246,-464.355,-9.277,76.660,0.000,0
1542731950.034,59.570,-548.340,-0.977,87.402,0.000,0
1542731950.038,56.152,-144.043,5.371,83.984,0.000,0
1542731950.042,58.594,-260.742,-0.977,68.359,0.000,0
1542731950.046,65.430,-393.066,1.465,70.312,0.000,0
1542731950.050,64.941,-201.172,5.371,73.242,0.000,0
1542731950.054,61.523,-106.934,4.883,70.801,0.000,0
1542731950.057,65.918,-343.262,6.348,72.754,0.000,0
1542731950.061,67.383,-431.152,7.812,73.730,0.000,0
1542731950.065,63.477,-336.426,9.766,85.938,0.000,0
1542731950.069,57.617,-468.262,9.766,89.355,0.000,0
1542731950.073,53.711,-688.477,7.812,82.031,0.000,0
1542731950.077,54.199,-825.195,6.836,84.473,0.000,0
1542731950.081,54.199,-496.094,2.930,78.613,0.000,0
1542731950.085,59.082,-322.754,4.883,68.359,0.000,0
1542731950.089,60.547,-467.285,8.301,62.012,0.000,0
1542731950.093,58.594,-532.715,8.789,56.641,0.000,0
1542731950.097,57.129,-455.078,6.348,49.805,0.000,0
1542731950.100,58.105,-602.539,4.395,45.898,0.000,0
1542731950.104,55.176,-739.258,0.977,37.109,0.000,0
1542731950.108,50.293,-637.695,0.488,33.203,0.000,0
1542731950.112,46.875,-626.953,4.883,41.504,0.000,0
1542731950.116,40.039,-775.879,3.418,43.457,0.000,0
1542731950.120,34.180,-955.566,6.836,30.273,0.000,0
1542731950.124,30.762,-890.625,11.230,24.414,0.000,0
1542731950.128,27.344,-746.582,10.742,29.785,0.000,0
1542731950.132,24.902,-847.656,10.254,29.785,0.000,0
1542731950.136,18.066,-932.129,4.395,20.996,0.000,0
1542731950.139,18.066,-806.641,1.953,16.602,0.000,0
1542731950.143,29.785,-810.547,17.578,19.043,0.000,0
1542731950.147,33.203,-945.312,23.438,24.414,0.000,0
1542731950.151,25.879,-976.562,16.602,26.367,0.000,0
1542731950.155,20.996,-969.238,18.066,29.297,0.000,0
1542731950.159,26.367,-973.145,20.996,41.016,0.000,0
1542731950.163,31.250,-973.145,21.973,40.527,0.000,0
1542731950.167,23.438,-972.656,20.508,33.691,0.000,0
1542731950.171,29.785,-972.656,12.207,36.621,0.000,0
1542731950.175,31.250,-973.145,15.137,36.133,0.000,0
1542731950.179,26.367,-972.656,28.809,42.480,0.000,0
1542731950.182,38.086,-972.656,26.367,49.316,0.000,0
1542731950.186,46.875,-972.656,19.531,52.734,0.000,0
1542731950.190,52.734,-973.145,25.879,56.641,0.000,0
1542731950.194,52.246,-972.656,32.227,54.199,0.000,0
1542731950.198,45.410,-972.656,28.809,47.852,0.000,0
1542731950.202,57.129,-972.656,17.578,60.059,0.000,0
1542731950.206,60.547,-972.656,15.625,64.941,0.000,0
1542731950.210,34.180,-973.145,35.156,38.086,0.000,0
1542731950.214,20.020,-973.145,39.551,29.297,0.000,0
1542731950.218,14.160,-972.656,35.645,32.227,0.000,0
1542731950.222,1.953,-970.215,42.969,24.414,0.000,0
1542731950.225,13.672,-972.656,47.852,29.785,0.000,0
1542731950.229,12.207,-949.219,49.316,30.762,0.000,0
1542731950.233,3.418,-793.457,48.828,18.066,0.000,0
1542731950.237,14.160,-809.082,45.410,27.344,0.000,0
1542731950.241,14.160,-894.043,38.574,37.598,0.000,0
1542731950.245,20.508,-765.137,39.062,42.969,0.000,0
1542731950.249,29.297,-672.363,38.574,52.734,0.000,0
1542731950.253,20.996,-727.539,33.203,47.363,0.000,0
1542731950.257,18.066,-872.070,37.109,40.527,0.000,0
1542731950.261,13.184,-836.426,33.203,36.621,0.000,0
1542731950.264,17.578,-590.820,35.645,43.945,0.000,0
1542731950.268,25.879,-702.637,44.434,48.828,0.000,0
1542731950.272,20.508,-906.250,41.016,37.598,0.000,0
1542731950.276,9.766,-591.309,38.086,41.016,0.000,0
1542731950.280,13.184,-595.703,38.086,46.387,0.000,0
1542731950.284,16.602,-740.234,38.574,49.805,0.000,0
1542731950.288,11.230,-578.125,38.086,53.223,0.000,0
1542731950.292,20.020,-400.879,41.016,59.570,0.000,0
1542731950.296,27.344,-298.828,38.574,58.594,0.000,0
1542731950.300,24.902,-446.289,24.414,46.387,0.000,0
1542731950.304,22.461,-543.457,24.902,43.457,0.000,0
1542731950.307,14.160,-454.590,34.668,42.969,0.000,0
1542731950.311,14.648,-360.840,38.574,43.945,0.000,0
1542731950.315,20.020,-581.055,38.574,46.387,0.000,0
1542731950.319,14.160,-504.395,35.645,48.828,0.000,0
1542731950.323,19.043,-109.863,34.668,45.898,0.000,0
1542731950.327,19.531,-163.086,32.227,50.781,0.000,0
1542731950.331,15.137,-239.746,22.461,50.293,0.000,0
1542731950.335,16.602,-41.504,20.996,44.922,0.000,0
1542731950.339,22.949,-81.055,28.320,49.316,0.000,0
1542731950.343,25.879,-318.359,29.297,54.199,0.000,0
1542731950.347,24.902,-162.109,31.250,58.105,0.000,0
1542731950.350,18.066,-74.219,35.645,48.828,0.000,0
1542731950.354,8.301,-131.836,31.250,37.109,0.000,0
1542731950.358,2.441,-276.855,24.414,33.691,0.000,0
1542731950.362,-3.906,-381.836,17.578,30.762,0.000,0
1542731950.366,-0.488,49.316,16.113,27.344,0.000,0
1542731950.370,2.930,223.145,21.484,26.367,0.000,0
1542731950.374,-1.465,130.859,20.020,28.320,0.000,0
1542731950.378,-6.836,145.020,20.996,27.344,0.000,0
1542731950.382,0.000,188.965,25.391,33.203,0.000,0
1542731950.386,2.930,209.473,22.949,37.598,0.000,0
1542731950.389,-2.441,114.258,26.367,37.109,0.000,0
1542731950.393,-2.441,98.633,34.668,35.156,0.000,0
1542731950.397,3.418,59.082,39.062,31.250,0.000,0
1542731950.401,2.441,-38.086,38.574,35.645,0.000,0
1542731950.405,0.977,-301.270,34.180,32.715,0.000,0
1542731950.409,12.207,-162.598,35.645,43.457,0.000,0
1542731950.413,14.160,334.961,31.250,45.898,0.000,0
1542731950.417,16.113,270.020,32.715,41.992,0.000,0
1542731950.421,19.531,151.855,37.598,53.223,0.000,0
1542731950.425,10.254,284.668,28.320,45.898,0.000,0
1542731950.429,5.859,353.516,30.273,37.109,0.000,0
1542731950.432,4.395,221.680,32.227,36.133,0.000,0
1542731950.436,8.301,147.949,22.461,35.156,0.000,0
1542731950.440,19.043,239.258,20.508,30.273,0.000,0
1542731950.444,13.672,205.566,22.461,41.016,0.000,0
1542731950.448,2.930,-15.625,24.414,41.016,0.000,0
1542731950.452,3.906,-245.605,30.273,28.320,0.000,0
1542731950.456,9.766,152.832,35.156,39.551,0.000,0
1542731950.460,18.066,332.520,35.645,38.086,0.000,0
1542731950.464,19.043,124.512,35.156,26.855,0.000,0
1542731950.468,9.277,214.844,31.738,27.832,0.000,0
1542731950.472,5.859,380.859,31.250,33.203,0.000,0
1542731950.475,6.836,339.844,33.203,32.715,0.000,0
1542731950.479,12.695,152.344,29.297,26.855,0.000,0
1542731950.483,16.602,127.930,34.180,37.598,0.000,0
1542731950.487,16.602,280.762,39.062,42.969,0.000,0
1542731950.491,13.184,182.129,33.691,26.855,0.000,0
1542731950.495,8.789,-229.492,35.156,20.020,0.000,0
1542731950.499,6.348,-192.871,33.203,16.113,0.000,0
1542731950.503,4.883,217.285,25.879,13.184,0.000,0
1542731950.507,9.766,141.602,32.227,21.484,0.000,0
1542731950.511,0.000,48.828,32.227,15.625,0.000,0
1542731950.514,-7.812,207.031,27.344,15.625,0.000,0
1542731950.518,2.930,157.715,22.461,24.902,0.000,0
1542731950.522,4.883,-122.559,23.438,19.531,0.000,0
1542731950.526,7.812,-77.637,39.062,19.043,0.000,0
1542731950.530,1.953,174.316,45.898,22.461,0.000,0
1542731950.534,-8.789,204.102,41.504,25.879,0.000,0
1542731950.538,-6.836,-210.449,41.016,17.578,0.000,0
1542731950.542,-6.348,-491.211,40.527,13.184,0.000,0
1542731950.546,-5.371,-56.641,37.598,12.695,0.000,0
1542731950.550,-6.836,125.488,40.527,0.000,0.000,0
1542731950.554,3.906,-39.062,47.363,10.254,0.000,0
1542731950.557,15.137,-53.711,42.969,20.996,0.000,0
1542731950.561,18.555,36.621,35.645,15.137,0.000,0
1542731950.565,21.973,62.500,44.922,18.066,0.000,0
1542731950.569,29.785,-101.562,41.504,30.762,0.000,0
1542731950.573,40.527,-152.344,29.297,40.527,0.000,0
1542731950.577,50.781,-1.953,25.391,57.129,0.000,0
1542731950.581,63.477,-189.453,13.672,69.824,0.000,0
1542731950.585,74.219,-483.398,10.742,68.848,0.000,0
1542731950.589,85.938,-329.590,16.113,75.684,0.000,0
1542731950.593,92.285,-81.543,20.508,103.027,0.000,0
1542731950.597,99.121,-187.988,21.484,116.211,0.000,0
1542731950.600,105.469,-344.238,13.184,104.004,0.000,0
1542731950.604,102.051,-228.516,11.230,103.516,0.000,0
1542731950.608,101.074,-153.320,14.160,112.793,0.000,0
1542731950.612,105.957,-213.379,17.578,117.188,0.000,0
1542731950.616,117.188,-285.645,24.414,131.348,0.000,0
1542731950.620,121.094,-171.387,23.926,135.254,0.000,0
1542731950.624,118.164,-50.293,20.996,122.070,0.000,0
1542731950.628,105.957,-182.129,17.090,116.211,0.000,0
1542731950.632,101.562,-423.340,15.137,118.652,0.000,0
1542731950.636,101.074,-308.105,15.625,109.375,0.000,0
1542731950.639,99.121,-133.301,20.996,104.004,0.000,0
1542731950.643,97.168,-382.324,25.879,99.609,0.000,0
1542731950.647,92.773,-515.137,28.320,95.703,0.000,0
1542731950.651,81.543,-84.473,29.785,101.562,0.000,0
1542731950.655,71.289,121.094,27.344,94.238,0.000,0
1542731950.659,70.801,-9.277,30.273,73.730,0.000,0
1542731950.663,75.684,-48.828,32.227,68.359,0.000,0
1542731950.667,80.078,78.613,32.227,71.289,0.000,0
1542731950.671,80.078,92.285,33.203,77.148,0.000,0
1542731950.675,70.312,-96.680,30.762,71.777,0.000,0
1542731950.679,64.941,-256.348,29.297,63.965,0.000,0
1542731950.682,65.918,-167.480,28.320,66.406,0.000,0
1542731950.686,59.082,-5.859,25.879,63.477,0.000,0
1542731950.690,61.523,-324.707,25.391,57.129,0.000,0
1542731950.694,64.453,-292.969,29.297,54.688,0.000,0
1542731950.698,67.383,38.086,39.062,58.105,0.000,0
1542731950.702,64.453,-57.617,39.551,63.965,0.000,0
1542731950.706,61.035,-34.668,34.668,62.988,0.000,0
1542731950.710,57.129,126.465,34.668,60.059,0.000,0
1542731950.714,53.711,180.176,35.156,55.176,0.000,0
1542731950.718,50.781,72.754,36.133,50.781,0.000,0
1542731950.722,51.758,6.348,35.645,50.781,0.000,0
1542731950.725,53.223,-128.418,35.645,46.875,0.000,0
1542731950.729,41.992,36.621,37.598,49.805,0.000,0
1542731950.733,37.109,27.832,34.180,49.316,0.000,0
1542731950.737,43.457,-290.527,31.250,43.457,0.000,0
1542731950.741,47.363,74.707,33.203,49.805,0.000,0
1542731950.745,45.898,260.742,34.180,52.734,0.000,0
1542731950.749,41.992,78.613,28.809,41.504,0.000,0
1542731950.753,44.922,128.418,27.344,29.297,0.000,0
1542731950.757,46.387,286.621,28.320,33.691,0.000,0
1542731950.761,35.645,92.285,24.414,39.551,0.000,0
1542731950.764,28.320,-61.523,32.715,32.715,0.000,0
1542731950.768,31.250,50.781,43.945,35.156,0.000,0
1542731950.772,22.949,-7.812,43.457,41.992,0.000,0
1542731950.776,16.113,12.207,39.551,37.598,0.000,0
1542731950.780,24.902,-282.227,37.598,32.227,0.000,0
1542731950.784,31.250,-290.527,37.109,34.668,0.000,0
1542731950.788,38.086,128.418,41.016,44.922,0.000,0
1542731950.792,34.668,74.707,38.086,49.805,0.000,0
1542731950.796,30.762,-11.230,33.691,41.992,0.000,0
1542731950.800,37.109,71.289,34.180,33.203,0.000,0
1542731950.804,33.203,144.043,35.156,40.039,0.000,0
1542731950.807,28.320,1.465,40.039,36.133,0.000,0
1542731950.811,32.715,-49.805,41.016,22.949,0.000,0
1542731950.815,34.180,80.566,41.016,28.809,0.000,0
1542731950.819,25.391,-59.570,34.180,33.203,0.000,0
1542731950.823,15.625,-372.559,25.391,24.414,0.000,0
1542731950.827,11.719,-465.820,26.367,17.578,0.000,0
1542731950.831,18.555,-93.262,30.762,23.926,0.000,0
1542731950.835,20.996,98.633,32.227,28.320,0.000,0
1542731950.839,16.113,-67.871,30.273,26.367,0.000,0
1542731950.843,16.602,-100.098,30.273,23.926,0.000,0
1542731950.847,16.602,47.852,32.227,26.367,0.000,0
1542731950.850,20.508,31.250,36.133,26.855,0.000,0
1542731950.854,29.297,-119.141,38.574,30.273,0.000,0
1542731950.858,28.809,-121.094,39.062,27.344,0.000,0
1542731950.862,23.926,-60.547,42.480,19.531,0.000,0
1542731950.866,26.367,-225.586,40.039,22.949,0.000,0
1542731950.870,31.738,-582.520,34.668,22.949,0.000,0
1542731950.874,26.855,-413.574,34.180,26.367,0.000,0
1542731950.878,18.066,-79.102,33.203,35.156,0.000,0
1542731950.882,16.113,-172.363,25.879,33.691,0.000,0
1542731950.886,18.555,-195.801,19.043,34.180,0.000,0
1542731950.889,28.320,-143.555,17.090,40.527,0.000,0
1542731950.893,34.668,-51.758,15.137,34.668,0.000,0
1542731950.897,22.949,-139.160,26.367,33.203,0.000,0
1542731950.901,22.461,-221.680,34.180,43.945,0.000,0
1542731950.905,35.645,-80.078,30.273,45.410,0.000,0
1542731950.909,44.434,-66.895,25.879,56.641,0.000,0
1542731950.913,45.410,-416.992,22.461,52.246,0.000,0
1542731950.917,52.734,-690.430,28.320,48.340,0.000,0
1542731950.921,65.430,-377.441,29.297,64.941,0.000,0
1542731950.925,68.359,-94.727,22.461,69.336,0.000,0
1542731950.929,65.918,-228.516,21.973,67.871,0.000,0
1542731950.932,57.617,-343.262,22.949,61.523,0.000,0
1542731950.936,57.617,-249.023,27.832,60.059,0.000,0
1542731950.940,66.895,-290.039,28.320,68.848,0.000,0
1542731950.944,65.918,-343.262,24.902,72.266,0.000,0
1542731950.948,64.453,-305.176,27.344,64.941,0.000,0
1542731950.952,60.547,-213.379,26.367,52.734,0.000,0
1542731950.956,53.711,-217.285,25.391,53.223,0.000,0
1542731950.960,57.617,-509.277,27.832,51.758,0.000,0
1542731950.964,60.059,-591.797,31.250,51.758,0.000,0
1542731950.968,53.223,-345.703,36.621,52.734,0.000,0
1542731950.972,50.293,-333.496,40.527,53.223,0.000,0
1542731950.975,41.992,-729.980,37.598,48.828,0.000,0
1542731950.979,35.645,-662.109,31.250,38.574,0.000,0
1542731950.983,33.203,-297.363,27.832,33.691,0.000,0
1542731950.987,24.902,-345.703,29.297,25.391,0.000,0
1542731950.991,27.344,-385.254,20.508,20.020,0.000,0
1542731950.995,37.598,-310.547,16.113,21.973,0.000,0
1542731950.999,30.273,-378.906,22.461,22.461,0.000,0
1542731951.003,20.020,-510.742,20.508,35.645,0.000,0
1542731951.007,17.578,-626.953,19.043,31.738,0.000,0
1542731951.011,25.391,-524.414,31.250,31.250,0.000,0
1542731951.014,30.762,-227.539,41.504,45.898,0.000,0
1542731951.018,19.531,-442.871,33.203,32.227,0.000,0
1542731951.022,17.578,-741.699,36.133,21.484,0.000,0
1542731951.026,25.391,-416.504,40.527,38.086,0.000,0
1542731951.030,41.016,-324.707,38.086,57.617,0.000,0
1542731951.034,24.414,-392.578,38.086,31.738,0.000,0
1542731951.038,-20.020,-364.746,45.410,-15.137,0.000,0
1542731951.042,-30.273,-304.688,53.711,-31.738,0.000,0
1542731951.046,-58.594,-298.828,52.246,-59.082,0.000,0
1542731951.050,-101.074,-416.504,50.293,-88.867,0.000,0
1542731951.054,-109.375,-559.082,49.316,-110.840,0.000,0
1542731951.057,-127.930,-563.965,59.082,-144.043,0.000,0
1542731951.061,-167.969,-437.988,73.242,-167.480,0.000,0
1542731951.065,-208.984,-715.332,79.590,-184.082,0.000,0
1542731951.069,-216.797,-700.684,79.590,-200.684,0.000,0
1542731951.073,-220.215,-315.430,89.355,-222.656,0.000,0
1542731951.077,-242.188,-373.047,97.656,-233.398,0.000,0
1542731951.081,-249.023,-445.312,91.797,-238.770,0.000,0
1542731951.085,-256.348,-333.008,90.332,-254.395,0.000,0
1542731951.089,-255.371,-247.070,92.773,-258.789,0.000,0
1542731951.093,-243.652,-336.914,84.961,-253.906,0.000,0
1542731951.097,-225.586,-427.734,69.824,-227.539,0.000,0
1542731951.100,-199.219,-556.152,58.594,-205.078,0.000,0
1542731951.104,-190.918,-492.676,61.523,-198.730,0.000,0
1542731951.108,-187.988,-563.965,62.500,-187.988,0.000,0
1542731951.112,-168.945,-768.555,52.734,-175.781,0.000,0
1542731951.116,-148.438,-462.891,46.387,-160.156,0.000,0
1542731951.120,-124.023,-375.000,39.551,-136.719,0.000,0
1542731951.124,-106.445,-413.574,26.855,-113.770,0.000,0
1542731951.128,-98.633,-408.691,29.785,-89.844,0.000,0
1542731951.132,-83.984,-265.625,32.715,-75.684,0.000,0
1542731951.136,-54.688,-214.355,26.367,-74.219,0.000,0
1542731951.139,-38.574,-310.547,30.273,-60.059,0.000,0
1542731951.143,-41.992,-370.117,40.527,-45.898,0.000,0
1542731951.147,-35.156,-428.711,41.504,-33.691,0.000,0
1542731951.151,-27.832,-316.406,30.273,-34.668,0.000,0
1542731951.155,-13.184,-592.285,26.367,-35.645,0.000,0
1542731951.159,-10.742,-605.469,32.227,-23.438,0.000,0
1542731951.163,-3.418,-132.812,33.203,-10.742,0.000,0
1542731951.167,5.371,-187.012,29.297,-2.441,0.000,0
1542731951.171,9.766,-219.727,26.855,7.812,0.000,0
1542731951.175,2.930,-41.016,25.391,17.578,0.000,0
1542731951.179,-2.441,-103.516,32.227,30.762,0.000,0
1542731951.182,8.789,-185.059,27.832,34.668,0.000,0
1542731951.186,12.695,-24.414,30.273,29.785,0.000,0
1542731951.190,8.301,120.605,32.715,35.645,0.000,0
1542731951.194,17.578,140.625,22.949,51.270,0.000,0
1542731951.198,30.762,49.805,13.184,56.641,0.000,0
1542731951.202,30.762,-33.203,6.348,52.246,0.000,0
1542731951.206,26.855,405.273,22.949,52.734,0.000,0
1542731951.210,32.715,712.891,41.016,61.523,0.000,0
1542731951.214,43.945,685.059,41.016,64.941,0.000,0
1542731951.218,41.016,724.121,29.785,53.711,0.000,0
1542731951.222,30.273,834.961,21.484,55.664,0.000,0
1542731951.225,27.832,815.918,22.461,55.176,0.000,0
1542731951.229,31.250,662.109,26.855,45.410,0.000,0
1542731951.233,44.922,562.012,26.855,40.039,0.000,0
1542731951.237,51.270,369.141,15.625,40.039,0.000,0
1542731951.241,44.922,76.172,17.090,30.273,0.000,0
1542731951.245,40.039,-394.043,31.250,7.812,0.000,0
1542731951.249,36.133,-508.789,26.367,9.766,0.000,0
1542731951.253,22.949,-294.922,21.973,18.555,0.000,0
1542731951.257,17.578,-564.941,13.672,17.578,0.000,0
1542731951.261,16.602,-813.965,0.977,19.043,0.000,0
1542731951.264,19.531,-843.750,-0.488,13.184,0.000,0
1542731951.268,32.715,-916.504,15.625,5.371,0.000,0
1542731951.272,37.598,-977.539,24.902,12.695,0.000,0
1542731951.276,36.133,-971.680,14.160,19.531,0.000,0
1542731951.280,44.434,-971.680,12.695,28.809,0.000,0
1542731951.284,47.852,-973.145,27.832,37.109,0.000,0
1542731951.288,37.598,-973.145,40.039,35.645,0.000,0
1542731951.292,42.969,-973.145,16.602,44.922,0.000,0
1542731951.296,54.688,-973.145,4.395,44.922,0.000,0
1542731951.300,47.852,-973.145,22.949,37.598,0.000,0
1542731951.304,38.574,-973.145,28.320,31.738,0.000,0
1542731951.307,33.691,-973.145,20.996,25.391,0.000,0
1542731951.311,31.250,-972.656,16.113,33.691,0.000,0
1542731951.315,36.133,-973.145,16.113,47.363,0.000,0
1542731951.319,42.480,-970.215,10.742,45.898,0.000,0
1542731951.323,41.504,-978.516,10.742,41.992,0.000,0
1542731951.327,37.109,-956.055,21.484,55.176,0.000,0
1542731951.331,41.992,-911.133,20.508,61.523,0.000,0
1542731951.335,59.570,-954.590,17.578,62.500,0.000,0
1542731951.339,46.875,-842.285,17.090,48.828,0.000,0
1542731951.343,23.438,-628.418,11.230,30.273,0.000,0
1542731951.347,20.996,-562.988,7.812,18.066,0.000,0
1542731951.350,15.137,-714.355,10.254,13.672,0.000,0
1542731951.354,33.203,-572.754,10.742,35.645,0.000,0
1542731951.358,41.992,-402.344,-0.488,36.621,0.000,0
1542731951.362,20.508,-464.355,0.488,10.254,0.000,0
1542731951.366,20.020,-406.738,-2.930,6.836,0.000,0
1542731951.370,21.484,-214.355,-18.555,19.043,0.000,0
1542731951.374,22.461,-108.398,-3.906,17.578,0.000,0
1542731951.378,28.809,-264.160,21.484,16.113,0.000,0
1542731951.382,29.297,-461.914,24.902,19.043,0.000,0
1542731951.386,25.879,-392.578,16.113,23.926,0.000,0
1542731951.389,16.113,-125.977,13.184,35.645,0.000,0
1542731951.393,18.555,-320.801,9.766,33.691,0.000,0
1542731951.397,24.414,-575.195,4.883,17.578,0.000,0
1542731951.401,18.066,-151.855,0.488,9.277,0.000,0
1542731951.405,13.184,44.922,1.465,13.184,0.000,0
1542731951.409,6.836,-170.898,3.418,3.418,0.000,0
1542731951.413,12.207,-279.785,8.301,-2.441,0.000,0
1542731951.417,16.602,-280.273,14.648,10.742,0.000,0
1542731951.421,-2.930,-286.621,16.602,1.465,0.000,0
1542731951.425,-6.348,-404.297,28.809,-2.441,0.000,0
1542731951.429,10.742,-616.211,35.645,17.578,0.000,0
1542731951.432,15.625,-584.473,30.762,14.648,0.000,0
1542731951.436,16.113,-473.145,28.809,12.207,0.000,0
1542731951.440,13.672,-791.992,20.020,12.207,0.000,0
1542731951.444,3.906,-776.367,25.879,-0.488,0.000,0
1542731951.448,4.883,-496.582,41.992,0.488,0.000,0
1542731951.452,13.672,-703.125,36.133,5.859,0.000,0
1542731951.456,15.625,-805.664,19.531,9.277,0.000,0
1542731951.460,10.254,-656.250,24.414,4.883,0.000,0
1542731951.464,13.672,-658.691,38.086,-2.441,0.000,0
1542731951.468,19.043,-836.914,42.480,-5.859,0.000,0
1542731951.472,16.602,-881.348,40.039,1.953,0.000,0
1542731951.475,10.254,-904.785,28.320,1.465,0.000,0
1542731951.479,0.488,-981.445,13.672,-13.184,0.000,0
1542731951.483,-0.488,-971.191,11.719,-15.137,0.000,0
1542731951.487,4.883,-960.449,28.809,-13.184,0.000,0
1542731951.491,0.000,-854.980,38.574,-0.488,0.000,0
1542731951.495,0.000,-755.371,33.691,14.160,0.000,0
1542731951.499,3.418,-859.863,32.715,10.742,0.000,0
1542731951.503,6.836,-917.480,30.273,2.930,0.000,0
1542731951.507,13.184,-875.000,36.621,7.324,0.000,0
1542731951.511,13.672,-913.574,42.969,4.395,0.000,0
1542731951.514,8.301,-955.566,41.016,-0.488,0.000,0
1542731951.518,-0.488,-976.562,26.367,5.371,0.000,0
1542731951.522,10.254,-970.703,14.648,3.418,0.000,0
1542731951.526,21.973,-973.145,30.273,4.395,0.000,0
1542731951.530,20.020,-973.145,43.945,13.672,0.000,0
1542731951.534,18.066,-973.633,38.086,10.254,0.000,0
1542731951.538,15.137,-967.773,40.039,9.766,0.000,0
1542731951.542,0.488,-981.445,45.410,7.324,0.000,0
1542731951.546,8.301,-922.363,32.227,10.254,0.000,0
1542731951.550,20.996,-795.898,30.273,21.484,0.000,0
1542731951.554,18.066,-725.098,43.457,27.344,0.000,0
1542731951.557,27.344,-834.473,46.387,27.832,0.000,0
1542731951.561,36.621,-852.051,43.945,27.344,0.000,0
1542731951.565,26.855,-667.969,42.969,26.367,0.000,0
1542731951.569,19.043,-721.191,41.016,28.809,0.000,0
1542731951.573,30.762,-856.934,34.180,36.621,0.000,0
1542731951.577,18.066,-922.852,29.297,37.109,0.000,0
1542731951.581,11.719,-691.406,22.461,31.738,0.000,0
1542731951.585,22.949,-526.367,16.602,31.250,0.000,0
1542731951.589,16.113,-633.789,34.180,37.109,0.000,0
1542731951.593,30.273,-590.820,48.340,49.316,0.000,0
1542731951.597,38.086,-575.195,36.133,47.852,0.000,0
1542731951.600,33.691,-525.391,41.016,39.062,0.000,0
1542731951.604,40.527,-492.188,51.758,40.527,0.000,0
1542731951.608,37.109,-499.023,48.828,40.039,0.000,0
1542731951.612,34.668,-419.922,39.062,36.133,0.000,0
1542731951.616,18.555,-579.590,32.715,39.551,0.000,0
1542731951.620,15.137,-897.461,34.180,42.969,0.000,0
1542731951.624,41.504,-766.113,28.320,39.062,0.000,0
1542731951.628,35.645,-372.070,30.273,31.250,0.000,0
1542731951.632,22.461,-364.746,39.062,17.090,0.000,0
1542731951.636,35.156,-467.773,31.738,14.160,0.000,0
1542731951.639,33.691,-398.926,31.738,34.668,0.000,0
1542731951.643,30.273,-278.809,40.527,38.574,0.000,0
1542731951.647,24.414,-357.910,39.062,25.391,0.000,0
1542731951.651,33.691,-446.777,35.645,13.184,0.000,0
1542731951.655,40.527,-434.570,32.715,10.742,0.000,0
1542731951.659,16.113,-347.168,28.320,21.484,0.000,0
1542731951.663,24.414,-576.172,35.645,25.879,0.000,0
1542731951.667,50.293,-814.941,45.898,33.203,0.000,0
1542731951.671,36.621,-372.559,39.551,31.250,0.000,0
1542731951.675,31.738,-160.645,30.762,21.484,0.000,0
1542731951.679,34.668,-307.129,32.715,29.785,0.000,0
1542731951.682,41.504,-316.406,38.574,32.227,0.000,0
1542731951.686,39.062,-141.602,41.992,26.855,0.000,0
1542731951.690,43.457,-147.949,36.133,27.832,0.000,0
1542731951.694,35.645,-297.852,37.109,18.066,0.000,0
1542731951.698,30.273,-333.496,39.551,15.625,0.000,0
1542731951.702,37.109,-234.863,37.598,19.531,0.000,0
1542731951.706,38.574,-239.258,46.387,15.625,0.000,0
1542731951.710,37.598,-491.699,47.363,20.996,0.000,0
1542731951.714,33.203,-557.617,38.086,19.043,0.000,0
1542731951.718,27.344,-326.172,36.133,14.648,0.000,0
1542731951.722,21.484,-243.652,44.434,25.879,0.000,0
1542731951.725,16.602,-453.125,43.945,23.438,0.000,0
1542731951.729,33.691,-334.473,38.574,18.066,0.000,0
1542731951.733,48.340,-118.164,43.945,25.391,0.000,0
1542731951.737,43.457,-258.301,50.293,28.320,0.000,0
1542731951.741,35.156,-324.219,41.504,25.879,0.000,0
1542731951.745,27.832,-236.816,37.598,23.926,0.000,0
1542731951.749,27.832,-216.797,39.551,31.738,0.000,0
1542731951.753,35.156,-260.742,27.344,24.414,0.000,0
1542731951.757,31.250,-535.645,24.414,14.160,0.000,0
1542731951.761,24.902,-412.598,14.648,4.883,0.000,0
1542731951.764,36.133,-105.957,25.879,3.906,0.000,0
1542731951.768,42.480,-403.809,51.758,15.625,0.000,0
1542731951.772,26.855,-726.562,54.688,9.277,0.000,0
1542731951.776,15.137,-454.590,46.875,6.348,0.000,0
1542731951.780,16.602,-187.012,38.574,7.812,0.000,0
1542731951.784,28.809,-221.191,32.227,15.625,0.000,0
1542731951.788,32.227,-283.203,14.160,20.508,0.000,0
1542731951.792,29.297,-149.414,9.277,14.160,0.000,0
1542731951.796,24.414,-87.891,33.203,14.160,0.000,0
1542731951.800,12.695,-181.641,37.109,13.672,0.000,0
1542731951.804,7.812,-305.664,27.832,11.719,0.000,0
1542731951.807,3.418,-269.531,30.762,10.254,0.000,0
1542731951.811,16.113,-120.117,29.297,10.742,0.000,0
1542731951.815,32.715,-514.160,33.691,6.836,0.000,0
1542731951.819,31.250,-521.484,38.574,3.906,0.000,0
1542731951.823,34.180,-79.102,27.344,15.625,0.000,0
1542731951.827,20.020,-134.277,19.531,15.137,0.000,0
1542731951.831,11.719,-204.590,29.297,17.090,0.000,0
1542731951.835,13.184,-129.395,39.062,33.203,0.000,0
1542731951.839,7.812,-88.379,37.598,23.438,0.000,0
1542731951.843,24.902,-104.492,38.086,19.043,0.000,0
1542731951.847,48.828,-90.332,38.574,40.039,0.000,0
1542731951.850,37.109,-120.117,37.598,44.434,0.000,0
1542731951.854,33.203,-157.227,32.227,37.109,0.000,0
1542731951.858,34.668,-212.891,24.902,33.691,0.000,0
1542731951.862,35.645,-286.133,22.461,29.785,0.000,0
1542731951.866,32.715,170.410,22.949,37.598,0.000,0
1542731951.870,15.137,369.629,37.109,46.875,0.000,0
1542731951.874,19.043,248.535,45.410,52.246,0.000,0
1542731951.878,31.250,374.512,38.086,56.641,0.000,0
1542731951.882,44.434,645.020,42.969,59.570,0.000,0
1542731951.886,41.016,787.109,40.039,52.246,0.000,0
1542731951.889,44.922,829.590,46.387,61.035,0.000,0
1542731951.893,64.941,948.730,56.152,87.891,0.000,0
1542731951.897,50.293,-989.258,34.180,105.957,0.000,0
1542731951.901,39.551,993.164,30.273,98.633,0.000,0
1542731951.905,41.992,997.070,45.898,75.195,0.000,0
1542731951.909,38.086,998.047,48.828,69.824,0.000,0
1542731951.913,26.367,-1000.000,47.363,60.547,0.000,0
1542731951.917,36.621,999.023,47.852,56.152,0.000,0
1542731951.921,51.270,999.512,53.223,49.805,0.000,0
1542731951.925,40.039,999.512,53.223,27.832,0.000,0
1542731951.929,24.902,999.512,43.945,32.715,0.000,0
1542731951.932,23.926,999.512,37.598,28.809,0.000,0
1542731951.936,28.809,-999.512,35.645,6.348,0.000,0
1542731951.940,14.160,993.164,36.621,5.371,0.000,0
1542731951.944,2.441,-986.816,26.855,12.207,0.000,0
1542731951.948,17.578,962.891,18.066,14.648,0.000,0
1542731951.952,13.672,909.180,26.367,1.465,0.000,0
1542731951.956,9.766,996.094,27.832,-17.090,0.000,0
1542731951.960,10.254,-995.117,19.043,-24.414,0.000,0
1542731951.964,12.207,993.164,36.621,-33.203,0.000,0
1542731951.968,7.812,997.070,57.617,-43.945,0.000,0
1542731951.972,-8.789,996.582,46.875,-33.203,0.000,0
1542731951.975,-3.906,-988.770,35.156,-25.879,0.000,0
1542731951.979,0.488,854.980,39.062,-34.668,0.000,0
1542731951.983,-7.324,785.645,43.945,-29.785,0.000,0
1542731951.987,2.441,824.219,47.363,-17.090,0.000,0
1542731951.991,4.883,559.082,52.246,-9.766,0.000,0
1542731951.995,0.977,112.793,50.781,-39.062,0.000,0
1542731951.999,5.859,141.113,39.062,-41.016,0.000,0
1542731952.003,0.000,506.348,39.062,-36.621,0.000,0
1542731952.007,1.953,449.219,33.691,-53.711,0.000,0
1542731952.011,4.883,288.086,32.715,-43.945,0.000,0
1542731952.014,4.883,274.414,48.828,-41.504,0.000,0
1542731952.018,1.953,291.992,50.781,-41.016,0.000,0
1542731952.022,7.812,179.688,40.527,-28.320,0.000,0
1542731952.026,12.695,74.219,45.410,-13.672,0.000,0
1542731952.030,6.836,157.715,51.758,-11.719,0.000,0
1542731952.034,9.277,143.555,35.645,-22.949,0.000,0
1542731952.038,8.301,-197.754,33.203,-27.832,0.000,0
1542731952.042,-6.348,-526.855,45.898,-26.367,0.000,0
1542731952.046,-26.367,-237.793,43.457,-33.691,0.000,0
1542731952.050,-24.414,0.000,40.039,-40.039,0.000,0
1542731952.054,-14.160,-167.480,48.340,-26.367,0.000,0
1542731952.057,-18.066,-213.867,50.781,-9.277,0.000,0
1542731952.061,-32.227,-116.699,48.828,-20.996,0.000,0
1542731952.065,-38.086,-182.129,55.176,-36.133,0.000,0
1542731952.069,-35.645,-319.824,54.688,-40.527,0.000,0
1542731952.073,-41.504,-466.309,50.781,-61.035,0.000,0
1542731952.077,-49.316,-437.012,62.988,-61.035,0.000,0
1542731952.081,-70.801,-340.332,69.824,-72.266,0.000,0
1542731952.085,-81.543,-701.172,65.430,-106.934,0.000,0
1542731952.089,-105.469,-814.453,81.543,-111.328,0.000,0
1542731952.093,-126.465,-478.027,96.680,-121.582,0.000,0
1542731952.097,-147.949,-479.492,88.379,-161.621,0.000,0
1542731952.100,-178.711,-760.254,100.586,-186.523,0.000,0
1542731952.104,-178.223,-743.164,119.141,-187.012,0.000,0
1542731952.108,-171.387,-571.777,109.863,-199.219,0.000,0
1542731952.112,-193.359,-728.027,122.070,-193.848,0.000,0
1542731952.116,-180.664,-831.055,132.812,-193.359,0.000,0
1542731952.120,-177.246,-705.566,118.652,-207.520,0.000,0
1542731952.124,-192.383,-625.000,112.305,-202.637,0.000,0
1542731952.128,-180.176,-699.219,110.840,-194.336,0.000,0
1542731952.132,-183.594,-913.086,98.633,-182.129,0.000,0
1542731952.136,-167.969,-907.227,94.727,-172.852,0.000,0
1542731952.139,-154.785,-677.246,100.586,-185.547,0.000,0
1542731952.143,-150.879,-775.879,104.004,-167.480,0.000,0
1542731952.147,-139.648,-920.898,108.398,-126.465,0.000,0
1542731952.151,-131.836,-670.898,105.957,-120.117,0.000,0
1542731952.155,-107.910,-523.926,108.398,-122.070,0.000,0
1542731952.159,-71.777,-623.535,102.539,-79.590,0.000,0
1542731952.163,-66.895,-645.020,85.449,-48.828,0.000,0
1542731952.167,-69.336,-487.793,73.242,-58.594,0.000,0
1542731952.171,-31.250,-500.488,62.500,-29.297,0.000,0
1542731952.175,-3.906,-653.809,60.059,7.812,0.000,0
1542731952.179,-3.906,-813.965,58.594,11.230,0.000,0
1542731952.182,21.484,-824.707,60.059,26.855,0.000,0
1542731952.186,45.410,-670.898,56.152,48.340,0.000,0
1542731952.190,47.363,-835.449,51.270,63.477,0.000,0
1542731952.194,52.734,-947.754,43.945,59.082,0.000,0
1542731952.198,45.410,-647.461,32.715,67.871,0.000,0
1542731952.202,57.129,-596.680,34.668,87.402,0.000,0
1542731952.206,59.570,-668.457,32.227,89.355,0.000,0
1542731952.210,63.477,-508.301,21.484,86.426,0.000,0
1542731952.214,71.289,-423.340,27.832,86.426,0.000,0
1542731952.218,63.965,-582.520,32.715,100.586,0.000,0
1542731952.222,75.684,-685.059,23.926,102.051,0.000,0
1542731952.225,71.777,-732.422,19.531,81.543,0.000,0
1542731952.229,69.824,-655.762,22.949,84.961,0.000,0
1542731952.233,63.965,-705.078,29.297,90.332,0.000,0
1542731952.237,65.430,-913.574,26.855,88.867,0.000,0
1542731952.241,63.965,-661.621,18.555,91.797,0.000,0
1542731952.245,64.453,-533.203,12.695,81.543,0.000,0
1542731952.249,82.031,-607.422,5.371,99.121,0.000,0
1542731952.253,90.332,-724.121,7.812,98.633,0.000,0
1542731952.257,80.078,-707.031,9.766,87.891,0.000,0
1542731952.261,83.008,-530.273,20.508,96.680,0.000,0
1542731952.264,76.172,-629.395,10.254,100.098,0.000,0
1542731952.268,74.707,-696.289,-1.953,79.102,0.000,0
1542731952.272,89.844,-772.949,4.395,71.777,0.000,0
1542731952.276,70.312,-787.598,5.371,83.008,0.000,0
1542731952.280,68.359,-846.680,13.184,76.660,0.000,0
1542731952.284,80.566,-837.402,14.160,68.848,0.000,0
1542731952.288,62.500,-535.156,4.395,64.453,0.000,0
1542731952.292,57.129,-594.727,-2.441,71.289,0.000,0
1542731952.296,54.199,-706.543,11.719,72.754,0.000,0
1542731952.300,54.688,-549.805,28.809,78.613,0.000,0
1542731952.304,70.312,-415.039,25.391,86.914,0.000,0
1542731952.307,74.219,-553.223,12.695,92.773,0.000,0
1542731952.311,62.012,-681.152,11.230,78.613,0.000,0
1542731952.315,64.941,-702.637,4.883,60.547,0.000,0
1542731952.319,84.961,-736.328,3.418,68.359,0.000,0
1542731952.323,81.055,-848.145,16.113,63.477,0.000,0
1542731952.327,70.801,-880.371,22.461,49.805,0.000,0
1542731952.331,63.477,-548.828,24.902,61.035,0.000,0
1542731952.335,48.340,-370.117,22.949,64.453,0.000,0
1542731952.339,39.551,-471.191,15.137,61.523,0.000,0
1542731952.343,46.875,-500.000,7.812,60.059,0.000,0
1542731952.347,53.223,-341.309,10.742,54.199,0.000,0
1542731952.350,55.664,-296.387,14.648,57.129,0.000,0
1542731952.354,54.199,-398.926,24.414,52.734,0.000,0
1542731952.358,61.035,-422.852,31.250,61.523,0.000,0
1542731952.362,53.711,-337.402,19.531,47.852,0.000,0
1542731952.366,45.898,-431.152,12.207,60.059,0.000,0
1542731952.370,46.875,-778.320,22.461,72.754,0.000,0
1542731952.374,46.387,-790.527,23.926,44.922,0.000,0
1542731952.378,38.574,-359.375,23.926,43.945,0.000,0
1542731952.382,40.527,-249.512,22.461,41.992,0.000,0
1542731952.386,41.504,-353.516,17.578,50.293,0.000,0
1542731952.389,37.109,-248.535,21.484,51.270,0.000,0
1542731952.393,37.598,-164.551,28.809,47.852,0.000,0
1542731952.397,38.086,-224.121,34.180,50.781,0.000,0
1542731952.401,26.855,-231.934,31.250,43.945,0.000,0
1542731952.405,20.996,-135.254,20.020,35.156,0.000,0
1542731952.409,24.902,-86.914,20.996,34.180,0.000,0
1542731952.413,24.414,-423.828,31.250,34.180,0.000,0
1542731952.417,12.695,-712.891,24.414,27.832,0.000,0
1542731952.421,8.301,-341.309,15.137,39.062,0.000,0
1542731952.425,24.902,-87.891,19.043,43.457,0.000,0
1542731952.429,29.785,-224.121,23.438,34.668,0.000,0
1542731952.432,19.531,-400.879,33.691,47.363,0.000,0
1542731952.436,24.414,-339.844,33.691,42.480,0.000,0
1542731952.440,25.879,-189.453,30.273,35.645,0.000,0
1542731952.444,27.344,-245.117,32.715,48.828,0.000,0
1542731952.448,23.438,-271.973,38.086,41.016,0.000,0
1542731952.452,18.066,-191.406,31.250,38.574,0.000,0
1542731952.456,23.438,-188.965,16.602,39.062,0.000,0
1542731952.460,9.766,-437.500,17.578,30.762,0.000,0
1542731952.464,0.977,-458.496,25.391,25.391,0.000,0
1542731952.468,19.043,-179.688,36.621,41.016,0.000,0
1542731952.472,19.043,-249.023,35.645,39.551,0.000,0
1542731952.475,12.207,-457.520,27.832,29.297,0.000,0
1542731952.479,20.020,-327.637,35.645,41.504,0.000,0
1542731952.483,16.113,-167.480,38.574,40.527,0.000,0
1542731952.487,3.418,-313.477,29.785,26.367,0.000,0
1542731952.491,2.930,-476.074,17.578,27.344,0.000,0
1542731952.495,1.953,-394.531,16.602,31.738,0.000,0
1542731952.499,-1.953,-251.953,26.367,23.926,0.000,0
1542731952.503,11.719,-360.840,30.273,18.066,0.000,0
1542731952.507,14.160,-585.449,28.320,30.273,0.000,0
1542731952.511,20.996,-617.188,30.762,40.527,0.000,0
1542731952.514,30.762,-395.020,38.574,40.039,0.000,0
1542731952.518,26.367,-534.180,34.668,31.250,0.000,0
1542731952.522,28.320,-793.945,34.668,34.668,0.000,0
1542731952.526,30.762,-436.035,37.598,36.621,0.000,0
1542731952.530,28.320,-327.148,35.645,36.133,0.000,0
1542731952.534,22.949,-428.711,33.691,36.133,0.000,0
1542731952.538,22.949,-437.988,25.879,25.879,0.000,0
1542731952.542,24.902,-325.195,26.855,18.555,0.000,0
1542731952.546,24.414,-298.828,30.273,21.973,0.000,0
1542731952.550,23.926,-414.062,30.273,19.531,0.000,0
1542731952.554,20.508,-567.871,27.832,8.301,0.000,0
1542731952.557,24.902,-720.703,22.949,14.160,0.000,0
1542731952.561,29.785,-581.543,27.832,21.973,0.000,0
1542731952.565,24.902,-750.977,33.203,22.949,0.000,0
1542731952.569,22.949,-709.473,38.574,30.762,0.000,0
1542731952.573,22.949,-312.988,46.875,28.809,0.000,0
1542731952.577,24.902,-426.270,46.387,19.531,0.000,0
1542731952.581,25.391,-521.484,42.969,21.484,0.000,0
1542731952.585,20.020,-392.578,46.875,28.320,0.000,0
1542731952.589,23.438,-377.930,43.945,24.414,0.000,0
1542731952.593,23.926,-569.336,34.180,26.855,0.000,0
1542731952.597,24.902,-561.523,32.715,35.156,0.000,0
1542731952.600,28.320,-561.035,39.551,32.227,0.000,0
1542731952.604,20.020,-646.973,38.086,23.438,0.000,0
1542731952.608,18.066,-702.637,34.668,22.461,0.000,0
1542731952.612,19.531,-940.918,41.992,29.785,0.000,0
1542731952.616,16.602,-721.680,38.574,41.016,0.000,0
1542731952.620,15.137,-388.184,31.738,38.574,0.000,0
1542731952.624,24.902,-474.609,36.133,34.180,0.000,0
1542731952.628,29.297,-486.816,27.832,45.410,0.000,0
1542731952.632,16.113,-345.703,25.391,37.598,0.000,0
1542731952.636,10.254,-369.141,41.992,25.391,0.000,0
1542731952.639,17.090,-486.816,47.363,30.273,0.000,0
1542731952.643,14.648,-466.797,42.480,32.715,0.000,0
1542731952.647,3.418,-495.117,42.480,38.086,0.000,0
1542731952.651,-2.930,-451.660,42.480,24.902,0.000,0
1542731952.655,-6.348,-684.570,36.621,13.184,0.000,0
1542731952.659,-10.742,-734.375,26.855,21.973,0.000,0
1542731952.663,-6.836,-369.629,21.973,27.344,0.000,0
1542731952.667,7.812,-435.547,21.484,29.785,0.000,0
1542731952.671,8.789,-609.863,26.367,28.809,0.000,0
1542731952.675,-17.578,-584.473,38.086,24.902,0.000,0
1542731952.679,-24.902,-425.781,39.062,17.578,0.000,0
1542731952.682,-16.602,-476.562,33.203,10.742,0.000,0
1542731952.686,-19.043,-538.574,27.832,10.254,0.000,0
1542731952.690,-17.090,-451.172,19.531,17.090,0.000,0
1542731952.694,-8.301,-534.668,20.508,17.578,0.000,0
1542731952.698,-2.930,-784.180,29.297,13.184,0.000,0
1542731952.702,7.324,-873.535,41.504,19.531,0.000,0
1542731952.706,12.695,-561.035,47.363,30.762,0.000,0
1542731952.710,10.742,-363.281,44.922,33.691,0.000,0
1542731952.714,12.207,-594.727,41.992,35.645,0.000,0
1542731952.718,2.441,-700.684,36.133,35.645,0.000,0
1542731952.722,-0.977,-473.145,35.645,37.598,0.000,0
1542731952.725,8.301,-441.406,40.527,43.945,0.000,0
1542731952.729,5.859,-609.863,38.574,43.945,0.000,0
1542731952.733,1.953,-777.344,35.156,45.410,0.000,0
1542731952.737,7.812,-620.605,38.086,43.457,0.000,0
1542731952.741,13.184,-620.117,41.016,47.363,0.000,0
1542731952.745,14.648,-898.438,35.156,56.641,0.000,0
1542731952.749,15.625,-804.199,39.062,49.316,0.000,0
1542731952.753,8.789,-512.695,41.992,39.062,0.000,0
1542731952.757,10.742,-512.207,28.809,33.203,0.000,0
1542731952.761,5.859,-580.078,28.320,16.113,0.000,0
1542731952.764,-9.277,-481.445,34.180,-0.488,0.000,0
1542731952.768,-2.930,-380.371,33.203,12.695,0.000,0
1542731952.772,11.719,-557.129,38.086,22.461,0.000,0
1542731952.776,8.789,-649.414,41.016,25.879,0.000,0
1542731952.780,5.371,-491.699,41.504,29.785,0.000,0
1542731952.784,0.977,-414.062,36.133,32.227,0.000,0
1542731952.788,11.230,-687.988,34.180,34.180,0.000,0
1542731952.792,19.531,-961.914,40.527,33.203,0.000,0
1542731952.796,5.371,-672.363,36.133,28.809,0.000,0
1542731952.800,2.441,-408.691,28.809,28.320,0.000,0
1542731952.804,14.648,-515.625,36.621,42.969,0.000,0
1542731952.807,17.090,-591.309,34.668,44.922,0.000,0
1542731952.811,18.066,-505.371,21.973,41.016,0.000,0
1542731952.815,12.695,-456.543,28.809,49.805,0.000,0
1542731952.819,4.395,-552.734,41.016,46.387,0.000,0
1542731952.823,2.441,-623.047,44.434,41.992,0.000,0
1542731952.827,8.301,-482.422,40.527,39.551,0.000,0
1542731952.831,38.574,-477.051,29.785,42.969,0.000,0
1542731952.835,39.062,-843.262,23.438,29.297,0.000,0
1542731952.839,-6.836,-853.027,27.344,-7.812,0.000,0
1542731952.843,-11.230,-529.785,38.086,4.395,0.000,0
1542731952.847,-0.488,-510.254,45.410,29.297,0.000,0
1542731952.850,-9.766,-756.348,41.504,16.602,0.000,0
1542731952.854,-4.883,-772.949,44.922,14.648,0.000,0
1542731952.858,5.371,-502.441,50.293,18.066,0.000,0
1542731952.862,4.395,-606.934,42.480,15.625,0.000,0
1542731952.866,15.625,-739.746,41.016,24.414,0.000,0
1542731952.870,19.043,-634.766,43.457,29.785,0.000,0
1542731952.874,12.695,-610.352,47.852,22.949,0.000,0
1542731952.878,14.160,-748.047,47.852,14.648,0.000,0
1542731952.882,19.531,-972.656,41.016,26.367,0.000,0
1542731952.886,18.555,-950.195,40.039,24.414,0.000,0
1542731952.889,2.930,-788.574,31.250,5.371,0.000,0
1542731952.893,0.000,-842.773,36.621,3.906,0.000,0
1542731952.897,0.488,-982.422,40.527,11.719,0.000,0
1542731952.901,1.465,-917.969,30.273,7.812,0.000,0
1542731952.905,1.465,-831.543,26.855,9.766,0.000,0
1542731952.909,-6.836,-896.973,18.555,3.418,0.000,0
1542731952.913,-11.230,-988.281,19.531,0.488,0.000,0
1542731952.917,-12.695,-949.707,27.832,6.836,0.000,0
1542731952.921,-9.277,-943.848,38.574,4.395,0.000,0
1542731952.925,-5.859,-975.586,42.969,11.230,0.000,0
1542731952.929,-0.977,-973.145,38.574,19.043,0.000,0
1542731952.932,6.348,-972.168,37.109,24.414,0.000,0
1542731952.936,1.465,-973.145,36.133,21.484,0.000,0
1542731952.940,-5.859,-973.145,33.691,18.555,0.000,0
1542731952.944,-6.836,-973.145,31.250,16.113,0.000,0
1542731952.948,3.906,-973.145,25.391,5.859,0.000,0
1542731952.952,1.953,-973.145,17.090,9.766,0.000,0
1542731952.956,-14.160,-973.145,10.742,6.348,0.000,0
1542731952.960,-9.277,-973.145,14.648,1.953,0.000,0
1542731952.964,-0.488,-971.680,19.043,10.254,0.000,0
1542731952.968,0.000,-972.168,20.020,6.836,0.000,0
1542731952.972,11.719,-973.145,26.367,2.441,0.000,0
1542731952.975,4.883,-972.656,29.297,10.254,0.000,0
1542731952.979,-6.348,-973.633,30.273,17.578,0.000,0
1542731952.983,9.766,-967.773,38.574,17.578,0.000,0
1542731952.987,23.438,-981.934,41.992,22.949,0.000,0
1542731952.991,4.395,-939.941,35.645,16.113,0.000,0
1542731952.995,-8.789,-810.547,25.879,0.977,0.000,0
1542731952.999,-11.230,-896.973,18.555,-9.766,0.000,0
1542731953.003,-24.902,-921.387,20.996,-8.301,0.000,0
1542731953.007,-16.113,-835.449,22.461,6.836,0.000,0
1542731953.011,-2.441,-847.168,21.973,14.160,0.000,0
1542731953.014,-2.441,-880.859,22.949,8.301,0.000,0
1542731953.018,-2.441,-877.930,23.438,2.930,0.000,0
1542731953.022,0.488,-937.012,22.461,6.348,0.000,0
1542731953.026,-3.418,-888.184,27.832,16.113,0.000,0
1542731953.030,-13.672,-894.043,35.156,14.160,0.000,0
1542731953.034,-7.324,-936.035,35.645,18.066,0.000,0
1542731953.038,6.836,-748.535,29.297,32.227,0.000,0
1542731953.042,16.113,-759.766,29.297,33.691,0.000,0
1542731953.046,17.090,-852.539,35.645,26.855,0.000,0
1542731953.050,25.879,-755.859,37.109,36.133,0.000,0
1542731953.054,30.762,-661.133,36.621,52.734,0.000,0
1542731953.057,30.273,-782.715,32.715,44.434,0.000,0
1542731953.061,25.879,-854.980,27.832,34.668,0.000,0
1542731953.065,27.344,-727.539,36.133,40.527,0.000,0
1542731953.069,30.273,-804.199,38.574,42.480,0.000,0
1542731953.073,32.715,-894.043,29.297,35.645,0.000,0
1542731953.077,29.785,-915.039,27.832,31.250,0.000,0
1542731953.081,23.438,-759.766,36.133,34.180,0.000,0
1542731953.085,20.996,-671.387,39.551,36.133,0.000,0
1542731953.089,24.414,-836.914,32.715,30.273,0.000,0
1542731953.093,13.672,-935.547,30.762,31.250,0.000,0
1542731953.097,5.371,-784.668,36.621,25.879,0.000,0
1542731953.100,11.719,-668.457,37.598,16.113,0.000,0
1542731953.104,5.371,-759.766,34.668,23.926,0.000,0
1542731953.108,-4.395,-794.434,36.621,22.949,0.000,0
1542731953.112,-6.836,-708.008,37.598,15.625,0.000,0
1542731953.116,-4.395,-876.465,32.715,13.672,0.000,0
1542731953.120,-3.418,-994.141,29.297,11.230,0.000,0
1542731953.124,-2.441,-933.105,26.855,10.742,0.000,0
1542731953.128,3.418,-810.059,25.391,12.695,0.000,0
1542731953.132,10.254,-815.430,27.832,13.672,0.000,0
1542731953.136,8.301,-945.312,33.691,21.973,0.000,0
1542731953.139,11.230,-959.473,35.156,30.273,0.000,0
1542731953.143,13.672,-888.184,33.691,38.086,0.000,0
1542731953.147,20.996,-908.203,31.738,38.086,0.000,0
1542731953.151,23.926,-979.980,35.156,35.645,0.000,0
1542731953.155,10.742,-964.844,40.039,32.715,0.000,0
1542731953.159,19.531,-915.527,38.086,28.809,0.000,0
1542731953.163,27.344,-942.383,41.504,30.273,0.000,0
1542731953.167,23.438,-984.375,42.480,30.762,0.000,0
1542731953.171,15.137,-958.496,37.598,33.203,0.000,0
1542731953.175,11.230,-954.102,34.180,23.926,0.000,0
1542731953.179,8.789,-974.121,35.645,17.578,0.000,0
1542731953.182,1.465,-973.145,37.109,11.719,0.000,0
1542731953.186,4.883,-972.168,38.574,3.906,0.000,0
1542731953.190,5.371,-973.145,40.527,-0.977,0.000,0
1542731953.194,3.906,-973.145,36.621,-2.930,0.000,0
1542731953.198,6.836,-973.145,33.203,-4.883,0.000,0
1542731953.202,-4.883,-973.145,32.227,-13.672,0.000,0
1542731953.206,-15.137,-973.145,33.203,-13.672,0.000,0
1542731953.210,-13.672,-973.145,25.879,-11.230,0.000,0
1542731953.214,-6.836,-973.145,23.926,-7.324,0.000,0
1542731953.218,-1.953,-973.145,29.785,7.324,0.000,0
1542731953.222,8.301,-973.145,21.484,20.996,0.000,0
1542731953.225,19.531,-972.656,16.602,29.297,0.000,0
1542731953.229,17.090,-973.145,26.367,38.574,0.000,0
1542731953.233,22.461,-971.191,41.992,54.688,0.000,0
1542731953.237,22.949,-971.680,45.898,58.105,0.000,0
1542731953.241,19.043,-961.914,38.086,55.176,0.000,0
1542731953.245,25.391,-899.902,38.574,68.848,0.000,0
1542731953.249,27.344,-786.133,39.551,66.406,0.000,0
1542731953.253,27.832,-819.824,39.062,64.453,0.000,0
1542731953.257,25.391,-969.238,40.039,72.266,0.000,0
1542731953.261,24.902,-844.238,38.086,65.918,0.000,0
1542731953.264,31.250,-479.980,39.062,64.453,0.000,0
1542731953.268,28.320,-612.793,40.039,67.383,0.000,0
1542731953.272,29.297,-861.328,41.016,61.523,0.000,0
1542731953.276,35.156,-449.219,45.898,61.035,0.000,0
1542731953.280,32.227,-192.383,43.945,60.059,0.000,0
1542731953.284,27.344,-279.785,39.062,51.270,0.000,0
1542731953.288,27.832,-209.961,41.992,49.316,0.000,0
1542731953.292,24.414,-40.527,42.969,49.805,0.000,0
1542731953.296,24.414,-5.371,35.645,54.199,0.000,0
1542731953.300,25.879,-88.379,36.621,60.059,0.000,0
1542731953.304,14.648,-200.195,39.062,57.129,0.000,0
1542731953.307,11.719,-185.059,35.156,43.945,0.000,0
1542731953.311,26.855,42.480,35.645,49.805,0.000,0
1542731953.315,28.320,-148.438,39.551,53.711,0.000,0
1542731953.319,27.832,-117.676,42.480,58.105,0.000,0
1542731953.323,34.180,276.855,42.480,71.777,0.000,0
1542731953.327,42.480,254.395,42.480,63.965,0.000,0
1542731953.331,47.852,104.004,35.156,62.988,0.000,0
1542731953.335,46.875,204.590,28.809,64.941,0.000,0
1542731953.339,33.691,335.938,36.133,52.734,0.000,0
1542731953.343,34.668,197.266,45.410,45.898,0.000,0
1542731953.347,49.805,116.699,40.039,53.711,0.000,0
1542731953.350,43.945,16.602,34.180,60.059,0.000,0
1542731953.354,23.926,-18.066,31.250,37.598,0.000,0
1542731953.358,16.113,-128.906,28.809,22.461,0.000,0
1542731953.362,17.578,-335.449,32.227,33.203,0.000,0
1542731953.366,39.551,-16.602,29.785,40.039,0.000,0
1542731953.370,54.688,109.863,20.508,48.340,0.000,0
1542731953.374,44.922,-80.078,11.719,52.734,0.000,0
1542731953.378,53.223,-104.004,2.441,55.176,0.000,0
1542731953.382,60.547,-101.562,-7.812,47.363,0.000,0
1542731953.386,65.430,-149.902,-12.695,43.945,0.000,0
1542731953.389,88.867,-313.477,-7.324,64.453,0.000,0
1542731953.393,96.191,-402.832,-0.488,81.543,0.000,0
1542731953.397,100.586,-462.891,-4.395,85.938,0.000,0
1542731953.401,114.746,-577.637,-7.812,86.426,0.000,0
1542731953.405,120.117,-780.273,-8.789,88.867,0.000,0
1542731953.409,120.117,-772.461,-13.672,95.703,0.000,0
1542731953.413,117.676,-427.246,-13.184,94.727,0.000,0
1542731953.417,103.516,-489.258,-12.207,83.008,0.000,0
1542731953.421,90.332,-651.855,-10.742,80.078,0.000,0
1542731953.425,89.355,-560.059,-1.465,87.891,0.000,0
1542731953.429,85.938,-483.398,0.977,86.426,0.000,0
1542731953.432,82.520,-700.684,1.953,77.637,0.000,0
1542731953.436,80.078,-817.871,8.301,76.660,0.000,0
1542731953.440,85.449,-670.898,14.160,78.125,0.000,0
1542731953.444,82.520,-794.922,13.184,78.125,0.000,0
1542731953.448,77.637,-931.152,7.812,76.660,0.000,0
1542731953.452,78.125,-910.156,14.160,78.125,0.000,0
1542731953.456,77.148,-660.156,23.438,84.473,0.000,0
1542731953.460,66.895,-473.633,23.926,83.984,0.000,0
1542731953.464,62.988,-598.145,21.973,69.824,0.000,0
1542731953.468,68.848,-597.656,22.461,52.246,0.000,0
1542731953.472,64.453,-452.637,26.367,48.340,0.000,0
1542731953.475,63.477,-427.246,23.926,47.852,0.000,0
1542731953.479,67.383,-490.723,18.555,40.527,0.000,0
1542731953.483,64.941,-523.926,23.438,48.340,0.000,0
1542731953.487,62.012,-431.152,21.484,54.199,0.000,0
1542731953.491,65.918,-543.457,24.414,64.941,0.000,0
1542731953.495,59.570,-874.512,28.809,72.266,0.000,0
1542731953.499,52.246,-745.117,28.320,61.035,0.000,0
1542731953.503,44.922,-343.750,25.879,59.082,0.000,0
1542731953.507,36.133,-382.324,20.020,50.781,0.000,0
1542731953.511,44.434,-548.340,13.184,46.875,0.000,0
1542731953.514,48.828,-452.637,15.625,48.340,0.000,0
1542731953.518,41.016,-271.973,23.438,42.969,0.000,0
1542731953.522,25.391,-374.023,30.273,38.086,0.000,0
1542731953.526,20.020,-475.098,34.180,38.086,0.000,0
1542731953.530,27.344,-326.660,34.180,44.434,0.000,0
1542731953.534,28.320,-252.930,33.691,44.434,0.000,0
1542731953.538,26.855,-532.227,30.273,36.133,0.000,0
1542731953.542,29.297,-822.754,33.691,36.133,0.000,0
1542731953.546,33.203,-439.941,36.621,42.969,0.000,0
1542731953.550,36.621,-189.453,36.133,41.016,0.000,0
1542731953.554,41.992,-333.496,40.039,42.480,0.000,0
1542731953.557,38.574,-376.953,38.086,49.316,0.000,0
1542731953.561,33.203,-349.121,28.809,49.316,0.000,0
1542731953.565,28.809,-282.227,27.832,39.551,0.000,0
1542731953.569,21.484,-340.332,27.832,30.762,0.000,0
1542731953.573,25.391,-407.715,30.762,36.621,0.000,0
1542731953.577,40.527,-282.227,31.738,41.992,0.000,0
1542731953.581,41.016,-208.008,32.227,44.434,0.000,0
1542731953.585,38.086,-626.465,27.344,45.410,0.000,0
1542731953.589,39.062,-769.043,23.438,40.527,0.000,0
1542731953.593,41.992,-258.789,19.531,48.340,0.000,0
1542731953.597,53.223,-202.637,14.648,59.570,0.000,0
1542731953.600,43.457,-357.910,34.668,66.406,0.000,0
1542731953.604,28.320,-267.578,49.805,53.711,0.000,0
1542731953.608,30.762,-144.043,45.410,55.176,0.000,0
1542731953.612,35.645,-262.207,51.758,60.059,0.000,0
1542731953.616,41.992,-395.508,45.898,62.012,0.000,0
1542731953.620,38.086,-279.785,48.340,68.359,0.000,0
1542731953.624,32.715,-190.430,58.594,72.754,0.000,0
1542731953.628,37.598,-307.129,48.340,74.219,0.000,0
1542731953.632,41.992,-513.672,38.574,74.219,0.000,0
1542731953.636,42.969,-515.137,45.410,82.520,0.000,0
1542731953.639,36.621,-278.320,47.363,68.848,0.000,0
1542731953.643,34.180,-410.645,43.945,60.547,0.000,0
1542731953.647,32.715,-717.285,45.410,64.453,0.000,0
1542731953.651,26.855,-354.492,37.598,51.758,0.000,0
1542731953.655,25.391,-147.949,36.133,45.898,0.000,0
1542731953.659,12.207,-240.723,40.039,40.527,0.000,0
1542731953.663,8.789,-217.773,40.039,43.457,0.000,0
1542731953.667,18.555,-98.145,40.527,53.223,0.000,0
1542731953.671,19.531,-67.383,39.551,51.758,0.000,0
1542731953.675,21.973,-197.754,35.156,50.293,0.000,0
1542731953.679,28.320,-373.535,35.156,46.875,0.000,0
1542731953.682,22.461,-285.645,41.992,39.551,0.000,0
1542731953.686,20.996,-83.008,40.527,34.668,0.000,0
1542731953.690,17.090,-391.602,39.062,21.973,0.000,0
1542731953.694,22.461,-458.984,39.551,29.785,0.000,0
1542731953.698,37.109,-40.039,39.062,50.293,0.000,0
1542731953.702,33.691,-43.945,41.016,52.734,0.000,0
1542731953.706,30.273,-210.938,37.109,53.223,0.000,0
1542731953.710,35.645,-92.773,32.227,50.781,0.000,0
1542731953.714,40.527,28.809,33.203,49.316,0.000,0
1542731953.718,38.086,-75.684,38.574,54.199,0.000,0
1542731953.722,21.484,-121.094,21.973,51.758,0.000,0
1542731953.725,7.812,-161.621,6.348,36.133,0.000,0
1542731953.729,-0.488,-30.762,19.531,20.020,0.000,0
1542731953.733,-3.418,-147.949,30.762,20.020,0.000,0
1542731953.737,-0.488,-490.234,34.180,22.461,0.000,0
1542731953.741,7.812,-129.395,28.320,19.531,0.000,0
1542731953.745,10.742,81.055,25.879,28.320,0.000,0
1542731953.749,13.184,-38.574,34.668,43.945,0.000,0
1542731953.753,12.695,-28.320,38.574,37.598,0.000,0
1542731953.757,10.254,136.719,32.227,27.832,0.000,0
1542731953.761,10.742,186.523,21.973,24.902,0.000,0
1542731953.764,9.766,71.777,18.555,21.484,0.000,0
1542731953.768,17.578,12.207,27.344,26.367,0.000,0
1542731953.772,16.113,-125.000,34.668,32.227,0.000,0
1542731953.776,6.348,-68.359,33.203,31.250,0.000,0
1542731953.780,8.789,-209.961,35.645,30.273,0.000,0
1542731953.784,10.742,-281.250,35.156,26.367,0.000,0
1542731953.788,5.371,140.137,29.297,21.973,0.000,0
1542731953.792,-1.465,171.387,24.902,20.508,0.000,0
1542731953.796,-2.441,122.559,23.926,24.414,0.000,0
1542731953.800,7.812,225.586,29.297,33.203,0.000,0
1542731953.804,6.348,328.125,26.367,43.457,0.000,0
1542731953.807,4.395,223.145,27.344,50.293,0.000,0
1542731953.811,19.531,171.875,31.738,61.523,0.000,0
1542731953.815,25.391,412.109,36.133,73.242,0.000,0
1542731953.819,24.414,518.066,38.086,84.961,0.000,0
1542731953.823,15.625,374.512,42.969,79.590,0.000,0
1542731953.827,9.277,207.031,45.410,62.988,0.000,0
1542731953.831,13.184,604.492,42.969,53.711,0.000,0
1542731953.835,11.230,911.621,43.945,53.223,0.000,0
1542731953.839,10.254,833.496,43.945,58.594,0.000,0
1542731953.843,20.996,885.254,40.039,67.871,0.000,0
1542731953.847,22.461,-985.840,34.180,74.707,0.000,0
1542731953.850,14.160,994.629,34.180,65.430,0.000,0
1542731953.854,16.113,994.141,37.109,50.293,0.000,0
1542731953.858,22.461,993.164,38.574,46.387,0.000,0
1542731953.862,14.160,-1000.000,38.086,40.527,0.000,0
1542731953.866,0.000,987.305,35.156,34.180,0.000,0
1542731953.870,-1.953,691.406,36.621,37.598,0.000,0
1542731953.874,-3.906,751.465,36.621,32.227,0.000,0
1542731953.878,10.742,-963.867,37.109,35.156,0.000,0
1542731953.882,22.461,990.723,40.039,39.062,0.000,0
1542731953.886,13.672,996.582,34.180,30.273,0.000,0
1542731953.889,11.719,-1000.000,31.738,40.527,0.000,0
1542731953.893,11.719,999.512,30.762,53.223,0.000,0
1542731953.897,16.602,999.512,31.738,59.082,0.000,0
1542731953.901,22.461,999.512,37.598,62.012,0.000,0
1542731953.905,18.555,998.535,35.156,50.781,0.000,0
1542731953.909,13.184,-999.023,31.738,36.133,0.000,0
1542731953.913,14.648,997.559,31.250,30.762,0.000,0
1542731953.917,21.973,985.352,34.180,29.785,0.000,0
1542731953.921,23.438,996.582,33.691,17.578,0.000,0
1542731953.925,22.949,-999.023,34.668,10.254,0.000,0
1542731953.929,20.508,998.535,41.016,10.742,0.000,0
1542731953.932,15.137,999.023,41.504,-1.953,0.000,0
1542731953.936,9.766,-1000.000,33.203,-5.859,0.000,0
1542731953.940,2.441,999.512,26.367,-5.859,0.000,0
1542731953.944,0.000,987.305,24.902,-4.395,0.000,0
1542731953.948,26.367,986.328,22.461,19.531,0.000,0
1542731953.952,23.926,955.566,35.156,6.836,0.000,0
1542731953.956,-24.414,875.000,58.594,-42.480,0.000,0
1542731953.960,-38.574,335.938,56.641,-68.848,0.000,0
1542731953.964,-54.199,108.887,51.270,-85.449,0.000,0
1542731953.968,-100.098,426.758,57.129,-108.887,0.000,0
1542731953.972,-134.766,308.594,62.012,-151.855,0.000,0
1542731953.975,-160.156,108.887,71.289,-183.105,0.000,0
1542731953.979,-176.758,48.828,80.566,-193.848,0.000,0
1542731953.983,-195.801,-42.969,78.125,-218.750,0.000,0
1542731953.987,-208.008,-305.176,81.055,-229.004,0.000,0
1542731953.991,-198.242,-497.070,89.355,-210.449,0.000,0
1542731953.995,-195.801,-406.738,87.402,-203.613,0.000,0
1542731953.999,-190.918,-422.852,79.590,-204.102,0.000,0
1542731954.003,-174.316,-628.906,71.289,-188.965,0.000,0
1542731954.007,-153.809,-934.082,69.336,-169.434,0.000,0
1542731954.011,-133.301,-915.527,69.336,-144.531,0.000,0
1542731954.014,-116.699,-758.789,65.430,-118.164,0.000,0
1542731954.018,-101.562,-859.375,60.059,-109.863,0.000,0
1542731954.022,-86.426,-982.422,57.617,-103.027,0.000,0
1542731954.026,-82.520,-942.383,51.270,-93.262,0.000,0
1542731954.030,-72.266,-959.473,43.945,-86.426,0.000,0
1542731954.034,-57.129,-977.051,45.410,-65.430,0.000,0
1542731954.038,-59.570,-971.191,48.340,-49.316,0.000,0
1542731954.042,-68.848,-973.145,47.852,-51.270,0.000,0
1542731954.046,-57.617,-973.145,45.410,-39.062,0.000,0
1542731954.050,-38.086,-972.656,43.457,-36.133,0.000,0
1542731954.054,-44.922,-972.656,44.922,-48.828,0.000,0
1542731954.057,-55.176,-972.656,38.574,-56.641,0.000,0
1542731954.061,-47.363,-973.145,37.109,-52.246,0.000,0
1542731954.065,-30.273,-973.145,45.410,-40.039,0.000,0
1542731954.069,-27.344,-973.145,40.527,-34.668,0.000,0
1542731954.073,-31.250,-972.656,39.062,-28.320,0.000,0
1542731954.077,-24.414,-973.145,39.551,-25.391,0.000,0
1542731954.081,-15.137,-973.145,39.551,-24.414,0.000,0
1542731954.085,0.488,-972.656,43.945,-11.230,0.000,0
1542731954.089,-1.953,-972.656,42.969,-2.441,0.000,0
1542731954.093,-5.371,-973.145,41.016,-1.953,0.000,0
1542731954.097,-4.395,-973.145,40.527,-5.859,0.000,0
1542731954.100,-11.719,-972.656,45.898,-11.719,0.000,0
1542731954.104,-14.160,-972.656,50.781,-21.484,0.000,0
1542731954.108,-11.719,-972.656,47.852,-36.133,0.000,0
1542731954.112,-14.648,-973.145,40.039,-59.082,0.000,0
1542731954.116,-25.879,-973.145,33.203,-68.848,0.000,0
1542731954.120,-25.391,-973.145,30.762,-79.590,0.000,0
1542731954.124,-19.531,-973.145,31.250,-90.332,0.000,0
1542731954.128,-11.719,-972.656,41.016,-79.590,0.000,0
1542731954.132,-8.789,-972.656,43.945,-62.012,0.000,0
1542731954.136,-9.766,-973.145,28.809,-47.363,0.000,0
1542731954.139,-6.836,-973.145,26.367,-40.527,0.000,0
1542731954.143,-11.230,-972.656,26.367,-40.039,0.000,0
1542731954.147,-3.906,-972.656,18.066,-33.691,0.000,0
1542731954.151,3.418,-973.145,31.738,-21.484,0.000,0
1542731954.155,1.953,-972.656,46.875,-1.953,0.000,0
1542731954.159,-3.906,-972.656,39.062,6.836,0.000,0
1542731954.163,-6.836,-972.656,31.250,5.859,0.000,0
1542731954.167,-8.789,-973.145,31.738,2.441,0.000,0
1542731954.171,-5.859,-973.145,33.203,-1.465,0.000,0
1542731954.175,-0.488,-973.145,32.227,4.883,0.000,0
1542731954.179,1.465,-973.145,29.297,24.414,0.000,0
1542731954.182,6.836,-973.145,30.762,34.180,0.000,0
1542731954.186,8.301,-972.656,29.785,41.504,0.000,0
1542731954.190,11.230,-972.656,26.855,43.945,0.000,0
1542731954.194,17.090,-973.145,29.297,41.016,0.000,0
1542731954.198,11.719,-973.145,30.762,51.758,0.000,0
1542731954.202,9.277,-973.145,30.273,55.176,0.000,0
1542731954.206,13.184,-973.145,29.297,52.734,0.000,0
1542731954.210,12.207,-973.145,31.738,56.641,0.000,0
1542731954.214,20.508,-973.145,46.387,60.547,0.000,0
1542731954.218,31.738,-973.145,42.969,77.148,0.000,0
1542731954.222,23.926,-973.145,26.367,71.289,0.000,0
1542731954.225,3.418,-973.145,29.297,43.457,0.000,0
1542731954.229,-7.324,-972.656,30.762,40.527,0.000,0
1542731954.233,-18.066,-973.145,34.180,34.668,0.000,0
1542731954.237,-12.695,-974.121,41.504,27.344,0.000,0
1542731954.241,-5.859,-964.844,39.551,36.133,0.000,0
1542731954.245,-9.277,-980.469,37.598,30.762,0.000,0
1542731954.249,-12.207,-923.828,38.086,20.508,0.000,0
1542731954.253,-2.930,-674.316,41.992,28.320,0.000,0
1542731954.257,5.859,-547.363,48.340,33.203,0.000,0
1542731954.261,12.207,-564.941,39.551,33.203,0.000,0
1542731954.264,15.137,-359.863,28.809,38.574,0.000,0
1542731954.268,14.160,-114.746,35.645,47.363,0.000,0
1542731954.272,14.160,-169.434,47.852,41.504,0.000,0
1542731954.276,4.883,-152.832,52.246,39.551,0.000,0
1542731954.280,2.930,63.477,42.969,35.156,0.000,0
1542731954.284,8.789,212.891,35.156,22.461,0.000,0
1542731954.288,8.301,-9.766,40.527,29.785,0.000,0
1542731954.292,8.301,-227.539,40.527,25.879,0.000,0
1542731954.296,7.812,202.637,35.645,27.344,0.000,0
1542731954.300,11.230,517.090,25.391,30.762,0.000,0
1542731954.304,18.066,471.191,27.344,24.414,0.000,0
1542731954.307,16.113,449.219,40.039,31.738,0.000,0
1542731954.311,16.113,633.789,48.828,35.645,0.000,0
1542731954.315,19.531,713.379,47.363,44.922,0.000,0
1542731954.319,17.578,641.113,27.832,50.781,0.000,0
1542731954.323,18.066,602.051,24.414,34.668,0.000,0
1542731954.327,27.832,706.055,41.016,37.109,0.000,0
1542731954.331,27.344,844.727,42.480,45.898,0.000,0
1542731954.335,10.742,447.754,27.832,38.086,0.000,0
1542731954.339,11.230,367.188,21.973,29.297,0.000,0
1542731954.343,17.090,872.070,24.902,27.832,0.000,0
1542731954.347,14.648,814.941,29.785,32.227,0.000,0
1542731954.350,14.648,708.496,33.203,29.785,0.000,0
1542731954.354,14.648,875.488,31.738,22.461,0.000,0
1542731954.358,19.531,982.422,27.832,29.785,0.000,0
1542731954.362,18.066,909.180,26.367,34.180,0.000,0
1542731954.366,11.719,883.789,29.297,32.227,0.000,0
1542731954.370,20.508,-999.023,34.180,36.133,0.000,0
1542731954.374,29.297,-996.094,40.039,39.551,0.000,0
1542731954.378,32.715,992.188,40.039,37.109,0.000,0
1542731954.382,43.945,993.652,34.180,52.734,0.000,0
1542731954.386,43.945,994.141,29.297,66.895,0.000,0
1542731954.389,37.598,-989.746,39.551,82.031,0.000,0
1542731954.393,50.293,975.098,49.805,86.426,0.000,0
1542731954.397,42.480,928.223,40.527,57.129,0.000,0
1542731954.401,18.555,994.629,28.809,29.785,0.000,0
1542731954.405,30.273,-995.117,20.020,27.832,0.000,0
1542731954.409,38.574,995.605,12.207,34.180,0.000,0
1542731954.413,22.949,-1000.000,7.812,26.367,0.000,0
1542731954.417,18.555,999.512,0.977,24.414,0.000,0
1542731954.421,26.855,999.512,-11.230,29.297,0.000,0
1542731954.425,42.480,999.512,-24.902,32.715,0.000,0
1542731954.429,55.664,999.512,-32.227,35.645,0.000,0
1542731954.432,59.082,999.512,-39.062,46.387,0.000,0
1542731954.436,62.500,999.512,-50.781,58.105,0.000,0
1542731954.440,70.801,999.512,-56.152,59.570,0.000,0
1542731954.444,83.496,999.512,-62.012,85.938,0.000,0
1542731954.448,98.145,999.512,-72.754,109.375,0.000,0
1542731954.452,109.863,999.512,-77.637,125.488,0.000,0
1542731954.456,110.840,999.512,-80.078,128.418,0.000,0
1542731954.460,109.375,999.512,-79.102,121.094,0.000,0
1542731954.464,125.000,999.512,-79.102,127.441,0.000,0
1542731954.468,131.348,999.512,-83.008,119.141,0.000,0
1542731954.472,134.277,999.512,-79.102,111.816,0.000,0
1542731954.475,138.672,999.512,-71.289,113.281,0.000,0
1542731954.479,135.742,999.512,-69.336,113.770,0.000,0
1542731954.483,142.090,999.512,-63.965,108.398,0.000,0
1542731954.487,145.996,999.512,-58.594,100.098,0.000,0
1542731954.491,133.789,999.512,-56.152,101.562,0.000,0
1542731954.495,134.277,999.512,-51.758,113.281,0.000,0
1542731954.499,139.160,999.512,-49.316,105.957,0.000,0
1542731954.503,126.953,999.512,-44.922,83.496,0.000,0
1542731954.507,122.070,999.512,-35.645,84.961,0.000,0
1542731954.511,125.488,999.512,-22.949,90.820,0.000,0
1542731954.514,117.188,999.512,-17.090,83.984,0.000,0
1542731954.518,101.074,999.023,-22.949,71.289,0.000,0
1542731954.522,97.168,999.512,-18.066,62.988,0.000,0
1542731954.526,98.145,999.512,-7.324,63.477,0.000,0
1542731954.530,82.520,994.141,-8.301,42.969,0.000,0
1542731954.534,71.289,996.582,-5.859,40.527,0.000,0
1542731954.538,75.684,-999.512,-4.395,47.852,0.000,0
1542731954.542,69.824,999.023,-4.395,42.480,0.000,0
1542731954.546,68.359,-999.512,0.977,50.293,0.000,0
1542731954.550,70.801,994.629,4.883,53.223,0.000,0
1542731954.554,63.477,-987.793,8.789,44.922,0.000,0
1542731954.557,72.266,956.543,13.672,41.016,0.000,0
1542731954.561,77.148,930.176,19.043,45.410,0.000,0
1542731954.565,80.078,941.895,19.531,43.945,0.000,0
1542731954.569,68.848,812.500,15.625,36.133,0.000,0
1542731954.573,55.664,517.578,20.996,40.039,0.000,0
1542731954.577,69.336,175.293,28.809,36.621,0.000,0
1542731954.581,67.383,427.734,26.855,20.020,0.000,0
1542731954.585,57.617,487.305,27.832,13.184,0.000,0
1542731954.589,63.965,194.824,27.832,14.648,0.000,0
1542731954.593,58.594,241.211,19.043,27.344,0.000,0
1542731954.597,39.062,352.539,21.973,29.297,0.000,0
1542731954.600,48.340,303.711,30.273,20.508,0.000,0
1542731954.604,40.527,93.750,27.832,9.277,0.000,0
1542731954.608,25.879,69.336,30.762,1.465,0.000,0
1542731954.612,41.992,95.703,36.133,6.348,0.000,0
1542731954.616,50.293,-98.145,32.227,18.555,0.000,0
1542731954.620,42.969,-433.105,34.180,25.391,0.000,0
1542731954.624,32.715,-348.145,38.086,28.809,0.000,0
1542731954.628,42.480,85.449,34.180,25.879,0.000,0
1542731954.632,45.410,34.180,31.250,22.461,0.000,0
1542731954.636,35.645,-166.992,34.668,13.672,0.000,0
1542731954.639,33.203,-83.496,37.109,16.602,0.000,0
1542731954.643,33.203,-69.824,33.691,30.273,0.000,0
1542731954.647,32.715,-330.078,35.645,32.227,0.000,0
1542731954.651,33.691,-318.848,35.156,36.133,0.000,0
1542731954.655,33.691,-114.746,34.668,42.969,0.000,0
1542731954.659,50.293,-54.199,38.086,40.039,0.000,0
1542731954.663,45.410,-376.465,39.062,34.668,0.000,0
1542731954.667,32.227,-703.613,37.598,42.480,0.000,0
1542731954.671,36.621,-363.281,38.574,43.945,0.000,0
1542731954.675,33.691,-70.801,32.715,29.785,0.000,0
1542731954.679,29.297,-205.566,25.391,18.555,0.000,0
1542731954.682,12.695,-313.477,24.414,22.461,0.000,0
1542731954.686,-3.906,-207.031,23.438,17.090,0.000,0
1542731954.690,-2.930,-207.031,27.344,6.348,0.000,0
1542731954.694,11.719,-370.117,28.320,6.836,0.000,0
1542731954.698,4.883,-377.930,27.344,0.000,0.000,0
1542731954.702,-7.812,-251.953,32.227,-2.930,0.000,0
1542731954.706,-4.395,-408.691,34.180,6.348,0.000,0
1542731954.710,10.742,-662.598,34.668,12.207,0.000,0
1542731954.714,11.230,-599.121,31.250,3.906,0.000,0
1542731954.718,0.977,-364.258,31.250,-0.488,0.000,0
1542731954.722,-5.859,-364.746,30.762,-3.418,0.000,0
1542731954.725,-13.184,-692.383,30.762,-13.184,0.000,0
1542731954.729,-12.695,-653.809,32.715,-10.254,0.000,0
1542731954.733,-14.160,-344.727,28.809,-20.020,0.000,0
1542731954.737,-27.344,-425.781,26.855,-41.504,0.000,0
1542731954.741,-33.691,-547.363,18.555,-25.879,0.000,0
1542731954.745,-29.297,-423.828,11.230,2.441,0.000,0
1542731954.749,-40.039,-291.016,12.207,-21.484,0.000,0
1542731954.753,-46.875,-414.062,16.113,-41.992,0.000,0
1542731954.757,-27.832,-689.941,20.996,-24.414,0.000,0
1542731954.761,-19.531,-606.934,21.484,-8.301,0.000,0
1542731954.764,-25.879,-443.848,16.113,-13.672,0.000,0
1542731954.768,-27.344,-702.637,9.277,-12.695,0.000,0
1542731954.772,-12.695,-841.309,10.254,1.465,0.000,0
1542731954.776,-0.977,-504.395,19.043,10.254,0.000,0
1542731954.780,-8.789,-308.594,21.484,7.812,0.000,0
1542731954.784,-21.484,-342.773,18.066,-10.254,0.000,0
1542731954.788,-24.414,-335.938,20.020,-10.742,0.000,0
1542731954.792,-19.043,-276.855,24.902,3.418,0.000,0
1542731954.796,-18.066,-227.539,24.414,0.488,0.000,0
1542731954.800,-11.230,-299.316,18.066,2.441,0.000,0
1542731954.804,-9.766,-553.711,22.461,8.301,0.000,0
1542731954.807,-12.695,-609.863,27.344,11.719,0.000,0
1542731954.811,-16.113,-377.441,22.461,2.441,0.000,0
1542731954.815,-20.508,-659.668,19.043,0.000,0.000,0
1542731954.819,-24.414,-704.590,16.602,9.766,0.000,0
1542731954.823,-21.484,-304.199,21.484,5.859,0.000,0
1542731954.827,-18.555,-499.512,27.344,4.395,0.000,0
1542731954.831,-14.160,-486.816,26.367,6.836,0.000,0
1542731954.835,-3.906,-222.168,23.438,4.883,0.000,0
1542731954.839,-2.441,-211.914,34.180,14.648,0.000,0
1542731954.843,0.977,-358.398,33.691,25.879,0.000,0
1542731954.847,12.207,-377.441,28.809,27.832,0.000,0
1542731954.850,13.672,-451.660,31.250,28.320,0.000,0
1542731954.854,11.230,-433.594,27.832,21.484,0.000,0
1542731954.858,16.602,-448.730,35.645,22.949,0.000,0
1542731954.862,22.949,-725.098,44.434,26.855,0.000,0
1542731954.866,22.949,-446.777,49.316,26.855,0.000,0
1542731954.870,18.555,-199.219,49.316,30.762,0.000,0
1542731954.874,23.438,-335.938,39.551,25.391,0.000,0
1542731954.878,27.832,-331.543,33.203,13.672,0.000,0
1542731954.882,18.555,-221.680,32.715,14.160,0.000,0
1542731954.886,16.602,-386.230,29.785,24.414,0.000,0
1542731954.889,14.648,-456.543,26.367,24.414,0.000,0
1542731954.893,35.645,-326.172,21.484,37.598,0.000,0
1542731954.897,56.641,-395.508,16.602,53.223,0.000,0
1542731954.901,17.578,-348.145,30.273,17.578,0.000,0
1542731954.905,-19.043,-632.324,54.688,-20.020,0.000,0
1542731954.909,-28.320,-760.254,58.105,-28.320,0.000,0
1542731954.913,-51.270,-348.145,54.688,-47.852,0.000,0
1542731954.917,-67.871,-355.957,54.199,-65.430,0.000,0
1542731954.921,-70.312,-406.738,48.828,-79.590,0.000,0
1542731954.925,-86.426,-324.707,54.199,-95.703,0.000,0
1542731954.929,-101.074,-253.906,63.965,-93.262,0.000,0
1542731954.932,-104.980,-329.102,64.941,-101.074,0.000,0
1542731954.936,-101.074,-452.637,62.500,-110.840,0.000,0
1542731954.940,-105.469,-349.121,58.594,-108.887,0.000,0
1542731954.944,-102.051,-432.129,56.641,-89.844,0.000,0
1542731954.948,-87.402,-726.562,50.293,-79.102,0.000,0
1542731954.952,-67.871,-812.500,50.781,-67.383,0.000,0
1542731954.956,-48.828,-429.199,57.617,-41.504,0.000,0
1542731954.960,-46.875,-199.707,55.664,-32.227,0.000,0
1542731954.964,-39.551,-333.984,46.875,-20.508,0.000,0
1542731954.968,-46.387,-401.367,46.387,-15.137,0.000,0
1542731954.972,-48.828,-258.301,48.828,-18.066,0.000,0
1542731954.975,-25.391,-199.219,50.781,-5.859,0.000,0
1542731954.979,-18.066,-373.047,48.340,9.766,0.000,0
1542731954.983,-19.531,-440.430,44.922,12.695,0.000,0
1542731954.987,-4.883,-311.035,52.246,5.859,0.000,0
1542731954.991,5.371,-435.059,55.664,12.207,0.000,0
1542731954.995,7.812,-801.270,51.758,25.879,0.000,0
1542731954.999,4.395,-718.750,54.199,18.555,0.000,0
1542731955.003,13.184,-375.488,57.617,27.344,0.000,0
1542731955.007,18.066,-478.516,53.223,41.992,0.000,0
1542731955.011,11.719,-503.418,49.316,35.156,0.000,0
1542731955.014,19.531,-398.438,49.805,29.297,0.000,0
1542731955.018,28.320,-288.086,52.246,34.668,0.000,0
1542731955.022,22.461,-364.746,50.781,30.273,0.000,0
1542731955.026,20.996,-473.145,45.410,32.715,0.000,0
1542731955.030,22.461,-360.352,46.875,39.062,0.000,0
1542731955.034,17.090,-270.508,41.504,37.598,0.000,0
1542731955.038,11.230,-546.875,34.180,33.691,0.000,0
1542731955.042,7.324,-838.867,44.434,22.461,0.000,0
1542731955.046,9.277,-537.598,48.340,16.113,0.000,0
1542731955.050,7.324,-250.488,43.945,19.043,0.000,0
1542731955.054,2.441,-364.258,36.133,13.672,0.000,0
1542731955.057,6.348,-420.898,34.180,17.578,0.000,0
1542731955.061,16.602,-324.707,41.992,27.344,0.000,0
1542731955.065,16.602,-467.285,40.039,26.855,0.000,0
1542731955.069,25.391,-504.883,38.574,27.344,0.000,0
1542731955.073,27.832,-389.648,32.227,30.273,0.000,0
1542731955.077,20.508,-347.168,21.973,32.715,0.000,0
1542731955.081,20.508,-366.211,31.738,38.086,0.000,0
1542731955.085,15.625,-595.703,38.086,41.504,0.000,0
1542731955.089,22.461,-601.562,38.574,39.551,0.000,0
1542731955.093,33.203,-352.051,32.715,40.039,0.000,0
1542731955.097,21.484,-335.938,27.344,37.109,0.000,0
1542731955.100,22.949,-639.648,35.645,37.598,0.000,0
1542731955.104,29.785,-626.953,41.992,43.945,0.000,0
1542731955.108,22.949,-283.691,35.645,36.621,0.000,0
1542731955.112,26.855,-375.977,25.391,35.156,0.000,0
1542731955.116,13.672,-541.504,26.367,31.250,0.000,0
1542731955.120,0.977,-410.156,29.785,23.438,0.000,0
1542731955.124,18.066,-421.875,16.602,32.715,0.000,0
1542731955.128,15.625,-564.453,15.625,34.180,0.000,0
1542731955.132,6.348,-612.793,32.227,32.227,0.000,0
1542731955.136,9.277,-599.609,30.762,29.785,0.000,0
1542731955.139,14.648,-368.164,25.391,33.203,0.000,0
1542731955.143,20.508,-502.441,30.273,40.527,0.000,0
1542731955.147,17.090,-811.035,27.832,31.738,0.000,0
1542731955.151,14.648,-456.055,24.414,24.414,0.000,0
1542731955.155,14.648,-278.320,27.344,20.996,0.000,0
1542731955.159,6.836,-439.941,26.855,25.391,0.000,0
1542731955.163,-4.395,-426.270,29.297,17.578,0.000,0
1542731955.167,-4.395,-283.691,20.508,6.348,0.000,0
1542731955.171,5.859,-277.344,10.742,10.742,0.000,0
1542731955.175,16.113,-454.102,21.973,21.484,0.000,0
1542731955.179,22.949,-594.238,31.738,35.156,0.000,0
1542731955.182,13.672,-597.656,32.715,28.809,0.000,0
1542731955.186,0.000,-636.230,24.414,20.508,0.000,0
1542731955.190,14.160,-638.672,26.367,24.902,0.000,0
1542731955.194,27.344,-443.359,39.551,28.320,0.000,0
1542731955.198,30.273,-271.973,36.133,32.227,0.000,0
1542731955.202,26.367,-326.660,33.203,32.715,0.000,0
1542731955.206,22.949,-645.020,42.480,31.250,0.000,0
1542731955.210,33.691,-578.125,51.758,31.250,0.000,0
1542731955.214,27.344,-289.062,51.758,20.508,0.000,0
1542731955.218,6.836,-385.254,38.574,16.602,0.000,0
1542731955.222,8.789,-439.941,39.551,32.715,0.000,0
1542731955.225,25.391,-492.188,47.363,42.969,0.000,0
1542731955.229,18.066,-498.535,48.340,35.156,0.000,0
1542731955.233,3.418,-553.223,48.828,21.973,0.000,0
1542731955.237,6.836,-799.805,47.852,15.137,0.000,0
1542731955.241,12.207,-501.953,39.551,7.324,0.000,0
1542731955.245,3.906,-425.293,29.297,14.160,0.000,0
1542731955.249,2.930,-529.785,9.766,20.020,0.000,0
1542731955.253,7.812,-375.000,15.625,12.695,0.000,0
1542731955.257,22.949,-274.902,51.270,22.949,0.000,0
1542731955.261,22.949,-258.301,67.871,31.738,0.000,0
1542731955.264,7.324,-326.660,35.645,22.461,0.000,0
1542731955.268,-4.395,-359.863,-0.488,11.719,0.000,0
1542731955.272,3.906,-441.406,35.645,10.254,0.000,0
1542731955.276,8.789,-363.281,66.895,-6.836,0.000,0
1542731955.280,-30.762,-651.367,53.711,-31.250,0.000,0
1542731955.284,-32.715,-766.113,47.852,-18.555,0.000,0
1542731955.288,-38.086,-304.199,53.223,-12.207,0.000,0
1542731955.292,-70.801,-318.359,46.387,-34.180,0.000,0
1542731955.296,-103.516,-538.086,46.875,-71.777,0.000,0
1542731955.300,-116.211,-452.637,63.965,-101.562,0.000,0
1542731955.304,-125.000,-420.410,59.082,-109.375,0.000,0
1542731955.307,-124.512,-552.734,51.758,-104.492,0.000,0
1542731955.311,-134.766,-538.086,65.430,-125.977,0.000,0
1542731955.315,-163.086,-420.898,94.238,-145.020,0.000,0
1542731955.319,-163.574,-443.848,87.402,-143.066,0.000,0
1542731955.323,-160.645,-623.047,65.430,-160.645,0.000,0
1542731955.327,-164.062,-821.289,75.195,-160.645,0.000,0
1542731955.331,-167.480,-522.461,113.770,-155.762,0.000,0
1542731955.335,-198.730,-345.703,128.418,-202.637,0.000,0
1542731955.339,-211.914,-515.625,115.723,-212.402,0.000,0
1542731955.343,-191.895,-595.703,104.980,-199.219,0.000,0
1542731955.347,-184.570,-578.125,74.219,-234.863,0.000,0
1542731955.350,-187.988,-687.012,60.059,-246.094,0.000,0
1542731955.354,-183.105,-900.391,90.820,-230.469,0.000,0
1542731955.358,-183.105,-982.910,103.027,-217.285,0.000,0
1542731955.362,-169.434,-965.820,87.402,-197.266,0.000,0
1542731955.366,-171.387,-973.145,70.312,-186.523,0.000,0
1542731955.370,-203.613,-973.145,70.312,-202.148,0.000,0
1542731955.374,-187.500,-972.656,77.148,-200.684,0.000,0
1542731955.378,-178.223,-972.656,53.223,-184.082,0.000,0
1542731955.382,-206.543,-973.145,76.172,-202.637,0.000,0
1542731955.386,-201.660,-972.656,118.164,-201.660,0.000,0
1542731955.389,-184.082,-973.145,93.262,-183.594,0.000,0
1542731955.393,-158.691,-973.145,66.895,-184.082,0.000,0
1542731955.397,-156.250,-973.145,71.777,-180.664,0.000,0
1542731955.401,-164.551,-973.145,82.520,-191.406,0.000,0
1542731955.405,-138.184,-973.145,62.988,-183.105,0.000,0
1542731955.409,-142.090,-967.773,64.453,-142.578,0.000,0
1542731955.413,-166.504,-979.004,84.473,-125.977,0.000,0
1542731955.417,-154.297,-958.008,79.590,-137.207,0.000,0
1542731955.421,-126.465,-819.824,71.777,-122.559,0.000,0
1542731955.425,-129.395,-867.188,72.266,-133.789,0.000,0
1542731955.429,-125.488,-968.750,105.469,-117.676,0.000,0
1542731955.432,-114.746,-831.055,88.867,-82.520,0.000,0
1542731955.436,-118.652,-687.500,78.613,-85.449,0.000,0
1542731955.440,-118.652,-645.020,109.863,-98.145,0.000,0
1542731955.444,-108.887,-724.609,116.211,-93.262,0.000,0
1542731955.448,-99.609,-696.777,107.422,-76.172,0.000,0
1542731955.452,-95.703,-536.133,68.848,-61.035,0.000,0
1542731955.456,-92.285,-505.371,66.406,-59.082,0.000,0
1542731955.460,-94.238,-809.570,107.422,-63.477,0.000,0
1542731955.464,-79.102,-820.312,103.516,-44.922,0.000,0
1542731955.468,-51.758,-480.957,73.730,-27.832,0.000,0
1542731955.472,-47.363,-411.133,81.055,-24.414,0.000,0
1542731955.475,-66.406,-505.859,111.816,-29.785,0.000,0
1542731955.479,-66.895,-404.297,87.891,-27.832,0.000,0
1542731955.483,-33.691,-333.496,51.270,-7.324,0.000,0
1542731955.487,-22.949,-435.059,73.730,-15.625,0.000,0
1542731955.491,-10.742,-419.434,81.543,-30.762,0.000,0
1542731955.495,-3.418,-380.859,50.293,14.648,0.000,0
1542731955.499,-22.461,-320.312,44.922,5.859,0.000,0
1542731955.503,-17.578,-448.730,82.031,-28.809,0.000,0
1542731955.507,1.465,-781.250,92.285,-4.395,0.000,0
1542731955.511,17.090,-766.602,73.242,9.766,0.000,0
1542731955.514,29.785,-632.324,64.453,23.438,0.000,0
1542731955.518,57.617,-825.684,51.758,62.988,0.000,0
1542731955.522,79.590,-991.699,50.781,85.938,0.000,0
1542731955.526,91.309,-959.473,69.336,87.891,0.000,0
1542731955.530,101.562,-961.426,70.801,101.562,0.000,0
1542731955.534,111.816,-974.121,62.012,125.488,0.000,0
1542731955.538,127.441,-973.145,55.176,136.719,0.000,0
1542731955.542,148.926,-972.656,49.316,167.969,0.000,0
1542731955.546,171.387,-973.145,47.363,203.613,0.000,0
1542731955.550,185.547,-973.145,49.316,210.449,0.000,0
1542731955.554,185.059,-973.145,40.039,203.613,0.000,0
1542731955.557,174.805,-973.145,17.578,192.871,0.000,0
1542731955.561,172.363,-973.145,30.273,193.848,0.000,0
1542731955.565,190.918,-973.145,59.082,191.895,0.000,0
1542731955.569,203.125,-973.145,57.129,182.129,0.000,0
1542731955.573,191.895,-973.145,45.410,177.246,0.000,0
1542731955.577,197.266,-973.145,31.250,176.270,0.000,0
1542731955.581,208.496,-973.145,25.879,180.176,0.000,0
1542731955.585,200.684,-973.145,30.273,171.875,0.000,0
1542731955.589,189.941,-973.145,20.020,161.621,0.000,0
1542731955.593,185.059,-972.656,18.066,163.086,0.000,0
1542731955.597,172.852,-973.145,10.254,160.156,0.000,0
1542731955.600,173.828,-972.656,0.977,147.949,0.000,0
1542731955.604,175.293,-972.656,7.812,137.695,0.000,0
1542731955.608,166.504,-972.656,8.301,147.949,0.000,0
1542731955.612,156.250,-973.145,35.645,157.227,0.000,0
1542731955.616,142.090,-973.145,35.156,145.996,0.000,0
1542731955.620,136.230,-972.656,36.621,143.555,0.000,0
1542731955.624,139.160,-973.145,57.129,148.438,0.000,0
1542731955.628,133.301,-973.145,53.223,149.414,0.000,0
1542731955.632,130.859,-973.145,34.668,161.133,0.000,0
1542731955.636,136.719,-973.145,26.855,170.898,0.000,0
1542731955.639,123.535,-972.656,51.270,152.832,0.000,0
1542731955.643,112.305,-972.656,41.992,130.371,0.000,0
1542731955.647,119.629,-973.145,46.387,133.789,0.000,0
1542731955.651,107.422,-973.145,65.430,140.625,0.000,0
1542731955.655,84.473,-973.145,62.012,129.883,0.000,0
1542731955.659,74.707,-973.145,54.688,129.395,0.000,0
1542731955.663,78.613,-973.145,30.273,128.906,0.000,0
1542731955.667,91.797,-973.145,30.273,127.441,0.000,0
1542731955.671,90.332,-973.145,69.824,125.977,0.000,0
1542731955.675,76.660,-973.145,81.543,106.934,0.000,0
1542731955.679,61.035,-972.656,75.195,102.051,0.000,0
1542731955.682,64.941,-973.145,74.707,108.398,0.000,0
1542731955.686,65.430,-973.145,71.777,103.516,0.000,0
1542731955.690,45.898,-972.656,57.617,97.168,0.000,0
1542731955.694,40.039,-973.145,21.484,91.797,0.000,0
1542731955.698,49.316,-973.145,26.855,91.797,0.000,0
1542731955.702,41.016,-973.145,84.961,88.867,0.000,0
1542731955.706,34.180,-973.145,101.562,82.520,0.000,0
1542731955.710,36.133,-972.656,59.570,67.383,0.000,0
1542731955.714,7.812,-973.145,50.781,52.734,0.000,0
1542731955.718,2.441,-973.145,79.102,53.711,0.000,0
1542731955.722,16.113,-972.168,74.707,65.918,0.000,0
1542731955.725,22.461,-969.727,47.363,73.730,0.000,0
1542731955.729,25.879,-979.980,60.059,64.941,0.000,0
1542731955.733,-6.348,-914.551,82.520,40.039,0.000,0
1542731955.737,-1.953,-814.941,60.547,46.387,0.000,0
1542731955.741,27.344,-891.602,40.527,57.617,0.000,0
1542731955.745,25.391,-993.652,47.363,58.594,0.000,0
1542731955.749,25.391,-874.023,53.711,69.336,0.000,0
1542731955.753,32.227,-568.359,57.129,62.988,0.000,0
1542731955.757,48.340,-479.492,51.270,66.406,0.000,0
1542731955.761,58.594,-602.539,54.199,100.586,0.000,0
1542731955.764,65.430,-483.887,68.848,99.121,0.000,0
1542731955.768,55.664,-327.637,75.195,81.543,0.000,0
1542731955.772,64.941,-394.531,63.965,92.285,0.000,0
1542731955.776,68.848,-382.324,62.012,77.637,0.000,0
1542731955.780,38.574,-278.809,80.078,70.801,0.000,0
1542731955.784,27.344,-304.688,81.055,60.059,0.000,0
1542731955.788,29.297,-449.219,70.801,51.758,0.000,0
1542731955.792,32.715,-665.527,77.637,62.988,0.000,0
1542731955.796,20.508,-328.613,76.660,60.547,0.000,0
1542731955.800,39.062,-30.273,66.406,60.547,0.000,0
1542731955.804,53.711,-106.445,78.613,50.781,0.000,0
1542731955.807,46.387,-120.605,90.332,39.551,0.000,0
1542731955.811,33.691,-17.090,87.402,40.039,0.000,0
1542731955.815,19.531,54.199,84.961,50.781,0.000,0
1542731955.819,24.902,0.488,85.938,54.688,0.000,0
1542731955.823,9.766,2.930,81.543,46.387,0.000,0
1542731955.827,-3.418,120.605,79.590,48.340,0.000,0
1542731955.831,4.883,200.684,78.613,42.969,0.000,0
1542731955.835,12.207,-198.242,80.078,46.387,0.000,0
1542731955.839,19.043,-282.715,87.891,51.270,0.000,0
1542731955.843,22.461,171.875,83.984,51.758,0.000,0
1542731955.847,29.297,300.781,81.543,61.035,0.000,0
1542731955.850,20.508,338.379,83.984,69.824,0.000,0
1542731955.854,16.602,505.859,86.426,88.379,0.000,0
1542731955.858,25.879,834.961,86.426,93.262,0.000,0
1542731955.862,37.598,-996.582,87.891,112.305,0.000,0
1542731955.866,61.035,994.141,91.309,171.875,0.000,0
1542731955.870,56.641,996.094,87.402,169.434,0.000,0
1542731955.874,26.367,-999.512,84.473,83.008,0.000,0
1542731955.878,-0.977,999.512,86.426,29.785,0.000,0
1542731955.882,5.859,999.512,86.914,40.527,0.000,0
1542731955.886,33.691,999.512,89.844,58.105,0.000,0
1542731955.889,20.508,999.512,94.238,63.477,0.000,0
1542731955.893,53.223,999.512,92.285,98.145,0.000,0
1542731955.897,76.660,999.512,87.891,115.234,0.000,0
1542731955.901,23.438,999.512,89.355,108.398,0.000,0
1542731955.905,14.648,999.512,89.355,124.512,0.000,0
1542731955.909,40.527,999.512,85.938,124.023,0.000,0
1542731955.913,43.457,999.512,78.125,115.723,0.000,0
1542731955.917,28.320,999.512,89.844,93.750,0.000,0
1542731955.921,30.762,999.512,110.352,59.082,0.000,0
1542731955.925,33.203,999.512,102.539,47.363,0.000,0
1542731955.929,37.598,998.535,94.727,46.875,0.000,0
1542731955.932,25.391,999.512,93.750,39.062,0.000,0
1542731955.936,25.391,-999.512,73.730,41.016,0.000,0
1542731955.940,49.805,982.422,59.570,65.918,0.000,0
1542731955.944,50.781,989.746,86.426,70.801,0.000,0
1542731955.948,43.945,-997.559,101.562,63.477,0.000,0
1542731955.952,24.902,998.047,85.938,53.711,0.000,0
1542731955.956,13.672,-1000.000,80.566,40.527,0.000,0
1542731955.960,19.531,997.070,73.730,28.320,0.000,0
1542731955.964,27.832,-993.652,75.684,38.086,0.000,0
1542731955.968,38.086,969.727,75.684,53.223,0.000,0
1542731955.972,29.785,971.191,62.500,41.016,0.000,0
1542731955.975,27.344,930.664,46.875,41.504,0.000,0
1542731955.979,37.598,814.453,49.805,51.758,0.000,0
1542731955.983,38.574,697.266,76.660,46.875,0.000,0
1542731955.987,28.809,542.480,91.309,34.668,0.000,0
1542731955.991,26.855,770.996,80.566,37.109,0.000,0
1542731955.995,19.531,888.672,63.477,38.086,0.000,0
1542731955.999,35.645,690.918,51.758,40.527,0.000,0
1542731956.003,67.871,632.324,30.273,61.523,0.000,0
1542731956.007,53.711,740.234,45.898,70.312,0.000,0
1542731956.011,39.062,701.660,87.891,45.410,0.000,0
1542731956.014,14.648,512.207,109.375,20.508,0.000,0
1542731956.018,-19.043,419.434,102.051,17.578,0.000,0
1542731956.022,-16.602,275.879,72.266,24.414,0.000,0
1542731956.026,-36.133,89.355,96.191,3.906,0.000,0
1542731956.030,-56.641,-164.551,128.418,-16.602,0.000,0
1542731956.034,-65.430,-99.121,141.113,-29.785,0.000,0
1542731956.038,-55.176,242.676,148.926,-23.926,0.000,0
1542731956.042,-47.852,142.090,147.461,-6.348,0.000,0
1542731956.046,-72.266,-11.230,161.133,-22.949,0.000,0
1542731956.050,-68.848,85.449,164.551,-27.832,0.000,0
1542731956.054,-58.105,155.762,147.461,-34.180,0.000,0
1542731956.057,-76.172,-80.078,130.859,-40.039,0.000,0
1542731956.061,-84.473,-135.742,137.207,-19.043,0.000,0
1542731956.065,-71.289,18.555,149.902,-5.859,0.000,0
1542731956.069,-57.617,-86.426,154.297,-4.395,0.000,0
1542731956.073,-44.434,-255.859,139.160,7.812,0.000,0
1542731956.077,-16.602,-473.633,123.047,15.137,0.000,0
1542731956.081,-4.883,-311.035,135.254,19.531,0.000,0
1542731956.085,-10.254,-118.164,139.160,36.621,0.000,0
1542731956.089,-11.230,-179.688,111.328,43.945,0.000,0
1542731956.093,-12.207,-244.629,97.168,30.273,0.000,0
1542731956.097,-8.789,-109.863,107.422,26.367,0.000,0
1542731956.100,-11.230,-84.473,101.562,21.973,0.000,0
1542731956.104,-16.113,-173.340,87.891,10.742,0.000,0
1542731956.108,-5.371,-195.312,79.590,6.836,0.000,0
1542731956.112,-18.066,-147.949,75.684,8.301,0.000,0
1542731956.116,-28.320,-278.320,78.613,12.695,0.000,0
1542731956.120,-9.277,-649.902,87.402,17.578,0.000,0
1542731956.124,-7.812,-612.305,82.520,0.977,0.000,0
1542731956.128,-15.137,-150.879,77.148,-5.371,0.000,0
1542731956.132,-18.066,-164.062,72.754,7.812,0.000,0
1542731956.136,-10.254,-250.977,60.547,18.066,0.000,0
1542731956.139,6.348,-275.391,44.434,23.926,0.000,0
1542731956.143,7.812,-280.762,52.734,20.996,0.000,0
1542731956.147,-8.789,-284.668,75.195,15.625,0.000,0
1542731956.151,-4.395,-331.543,74.707,21.973,0.000,0
1542731956.155,6.348,-215.820,70.801,25.391,0.000,0
1542731956.159,-9.277,-151.855,62.500,19.043,0.000,0
1542731956.163,0.488,-432.617,62.988,9.766,0.000,0
1542731956.167,8.789,-743.652,73.242,15.137,0.000,0
1542731956.171,-2.930,-457.031,65.430,23.438,0.000,0
1542731956.175,1.953,-207.031,45.898,29.297,0.000,0
1542731956.179,13.672,-326.172,44.434,24.902,0.000,0
1542731956.182,17.578,-402.832,57.129,26.855,0.000,0
1542731956.186,11.719,-278.809,62.500,40.039,0.000,0
1542731956.190,18.066,-182.129,76.172,32.227,0.000,0
1542731956.194,1.953,-313.477,77.148,1.465,0.000,0
1542731956.198,-4.883,-421.875,62.988,-6.348,0.000,0
1542731956.202,4.395,-452.637,64.941,16.602,0.000,0
1542731956.206,-1.465,-328.125,63.477,25.391,0.000,0
1542731956.210,1.465,-628.418,56.641,18.555,0.000,0
1542731956.214,6.348,-780.762,45.898,37.598,0.000,0
1542731956.218,-3.906,-321.777,39.062,47.852,0.000,0
1542731956.222,-13.672,-353.516,52.734,27.344,0.000,0
1542731956.225,-19.043,-418.457,57.617,21.973,0.000,0
1542731956.229,-33.691,-321.777,54.199,37.109,0.000,0
1542731956.233,-52.246,-236.816,55.176,33.203,0.000,0
1542731956.237,-59.570,-352.051,53.223,18.066,0.000,0
1542731956.241,-56.152,-530.273,39.062,14.648,0.000,0
1542731956.245,-55.664,-420.898,43.945,14.648,0.000,0
1542731956.249,-51.270,-252.930,64.941,26.367,0.000,0
1542731956.253,-45.898,-332.520,64.453,19.043,0.000,0
1542731956.257,-49.316,-579.102,40.527,20.020,0.000,0
1542731956.261,-51.270,-670.410,29.785,41.504,0.000,0
1542731956.264,-46.387,-416.992,37.598,18.555,0.000,0
1542731956.268,-57.617,-398.438,46.387,5.371,0.000,0
1542731956.272,-74.707,-723.633,58.594,9.277,0.000,0
1542731956.276,-62.500,-447.266,58.105,21.484,0.000,0
1542731956.280,-47.363,-247.070,53.223,28.320,0.000,0
1542731956.284,-53.711,-404.297,54.199,23.926,0.000,0
1542731956.288,-63.965,-436.523,59.570,23.926,0.000,0
1542731956.292,-70.801,-280.273,45.898,28.809,0.000,0
1542731956.296,-89.844,-270.020,33.691,34.180,0.000,0
1542731956.300,-100.098,-413.574,49.805,19.043,0.000,0
1542731956.304,-84.961,-543.945,48.828,10.742,0.000,0
1542731956.307,-77.637,-597.656,37.109,15.137,0.000,0
1542731956.311,-88.867,-446.289,13.672,20.508,0.000,0
1542731956.315,-90.332,-621.582,9.277,31.738,0.000,0
1542731956.319,-91.309,-739.258,27.832,26.367,0.000,0
1542731956.323,-101.562,-339.355,36.133,18.066,0.000,0
1542731956.327,-102.539,-285.645,44.922,14.648,0.000,0
1542731956.331,-88.867,-391.602,52.246,20.508,0.000,0
1542731956.335,-76.660,-249.512,65.430,23.438,0.000,0
1542731956.339,-76.172,-117.676,69.336,31.738,0.000,0
1542731956.343,-82.520,-307.129,62.988,44.434,0.000,0
1542731956.347,-79.102,-449.219,56.152,44.922,0.000,0
1542731956.350,-70.312,-459.473,51.270,43.457,0.000,0
1542731956.354,-67.871,-428.711,42.969,39.551,0.000,0
1542731956.358,-54.688,-498.535,29.785,40.039,0.000,0
1542731956.362,-45.410,-685.547,37.598,49.316,0.000,0
1542731956.366,-38.086,-317.383,61.035,53.711,0.000,0
1542731956.370,-60.547,-108.398,73.730,41.504,0.000,0
1542731956.374,-67.383,-255.859,74.219,45.898,0.000,0
1542731956.378,-52.246,-298.340,66.406,57.617,0.000,0
1542731956.382,-60.547,-303.223,56.152,48.828,0.000,0
1542731956.386,-55.176,-258.789,50.293,43.457,0.000,0
1542731956.389,-49.316,-246.094,50.293,40.527,0.000,0
1542731956.393,-45.898,-263.184,35.645,47.363,0.000,0
1542731956.397,-51.270,-330.566,27.344,51.270,0.000,0
1542731956.401,-60.059,-266.602,53.711,46.875,0.000,0
1542731956.405,-46.875,-546.875,65.918,58.105,0.000,0
1542731956.409,-33.203,-600.098,60.059,64.941,0.000,0
1542731956.413,-33.203,-158.691,65.430,64.453,0.000,0
1542731956.417,-34.668,-183.105,56.641,53.711,0.000,0
1542731956.421,-27.832,-271.484,34.180,50.293,0.000,0
1542731956.425,-9.277,-177.246,37.109,72.266,0.000,0
1542731956.429,-27.344,-98.145,54.199,53.223,0.000,0
1542731956.432,-67.383,-250.977,64.941,27.344,0.000,0
1542731956.436,-57.617,-369.141,72.754,39.062,0.000,0
1542731956.440,-36.133,-407.227,78.125,56.641,0.000,0
1542731956.444,-33.203,-423.340,70.312,70.312,0.000,0
1542731956.448,-35.156,-505.371,67.383,59.082,0.000,0
1542731956.452,-37.598,-691.895,76.660,53.223,0.000,0
1542731956.456,-28.320,-331.543,74.219,54.199,0.000,0
1542731956.460,-16.602,-96.191,71.289,54.199,0.000,0
1542731956.464,-7.324,-265.625,66.406,65.430,0.000,0
1542731956.468,-8.301,-245.117,64.453,62.988,0.000,0
1542731956.472,-24.902,-77.637,77.148,61.035,0.000,0
1542731956.475,-36.621,-112.305,88.379,64.453,0.000,0
1542731956.479,-27.344,-300.293,87.402,67.871,0.000,0
1542731956.483,-14.648,-335.938,83.496,70.312,0.000,0
1542731956.487,-11.719,-241.211,81.055,71.777,0.000,0
1542731956.491,-11.719,-338.867,76.660,67.383,0.000,0
1542731956.495,-21.973,-638.184,68.848,64.453,0.000,0
1542731956.499,-37.109,-760.254,51.270,68.359,0.000,0
1542731956.503,-37.598,-432.129,51.758,76.660,0.000,0
1542731956.507,-35.156,-222.656,83.008,68.848,0.000,0
1542731956.511,-41.504,-316.895,94.238,72.266,0.000,0
1542731956.514,-48.828,-330.566,81.055,64.941,0.000,0
1542731956.518,-29.297,-180.176,70.312,68.359,0.000,0
1542731956.522,-29.297,-247.559,62.988,74.219,0.000,0
1542731956.526,-43.945,-404.785,62.500,54.688,0.000,0
1542731956.530,-39.551,-303.711,71.289,64.941,0.000,0
1542731956.534,-40.527,-187.988,71.289,62.988,0.000,0
1542731956.538,-24.414,-473.145,54.688,53.223,0.000,0
1542731956.542,-12.207,-788.574,47.363,57.617,0.000,0
1542731956.546,-32.715,-426.270,65.430,52.246,0.000,0
1542731956.550,-35.156,-176.270,91.797,46.387,0.000,0
1542731956.554,-25.391,-296.875,68.848,44.922,0.000,0
1542731956.557,-25.879,-346.680,29.785,56.641,0.000,0
1542731956.561,-44.434,-346.191,55.664,53.711,0.000,0
1542731956.565,-54.688,-263.672,77.637,42.480,0.000,0
1542731956.569,-45.898,-252.441,63.477,36.621,0.000,0
1542731956.573,-34.668,-331.055,47.363,42.969,0.000,0
1542731956.577,-15.137,-224.121,47.852,57.129,0.000,0
1542731956.581,-20.996,-159.668,57.617,55.664,0.000,0
1542731956.585,-40.039,-642.578,62.500,58.105,0.000,0
1542731956.589,-43.945,-758.301,56.641,48.340,0.000,0
1542731956.593,-44.922,-269.531,51.270,41.992,0.000,0
1542731956.597,-31.738,-236.816,61.035,54.688,0.000,0
1542731956.600,-25.879,-357.422,64.941,50.293,0.000,0
1542731956.604,-25.391,-266.602,53.223,47.852,0.000,0
1542731956.608,-25.879,-116.211,62.012,48.340,0.000,0
1542731956.612,-23.926,-230.957,78.125,47.852,0.000,0
1542731956.616,-11.230,-373.535,73.730,46.875,0.000,0
1542731956.620,-10.254,-411.133,64.941,43.945,0.000,0
1542731956.624,-16.602,-296.387,37.109,38.574,0.000,0
1542731956.628,-18.555,-297.363,34.180,33.691,0.000,0
1542731956.632,-10.742,-616.211,64.453,41.992,0.000,0
1542731956.636,-14.160,-479.980,56.641,47.363,0.000,0
1542731956.639,-25.879,-172.363,47.363,41.504,0.000,0
1542731956.643,-29.785,-386.719,66.895,35.156,0.000,0
1542731956.647,-16.113,-733.398,79.102,34.668,0.000,0
1542731956.651,-19.043,-411.621,76.172,48.340,0.000,0
1542731956.655,-30.273,-154.785,68.359,48.340,0.000,0
1542731956.659,-15.625,-334.961,64.941,48.340,0.000,0
1542731956.663,-15.625,-359.375,52.246,58.105,0.000,0
1542731956.667,-22.949,-195.801,45.410,46.875,0.000,0
1542731956.671,-30.762,-185.547,53.223,44.922,0.000,0
1542731956.675,-32.715,-353.027,51.270,37.109,0.000,0
1542731956.679,-27.344,-496.094,43.945,33.691,0.000,0
1542731956.682,-29.785,-526.855,31.250,45.410,0.000,0
1542731956.686,-37.109,-560.059,36.621,40.527,0.000,0
1542731956.690,-41.992,-764.648,54.688,27.832,0.000,0
1542731956.694,-34.668,-698.242,60.059,20.996,0.000,0
1542731956.698,-24.902,-293.945,61.035,27.344,0.000,0
1542731956.702,-30.273,-283.691,53.711,27.344,0.000,0
1542731956.706,-29.785,-365.234,44.434,17.090,0.000,0
1542731956.710,-26.855,-246.582,38.574,16.113,0.000,0
1542731956.714,-22.949,-164.551,37.109,20.020,0.000,0
1542731956.718,-19.043,-341.797,34.180,14.160,0.000,0
1542731956.722,-13.672,-420.898,42.969,20.508,0.000,0
1542731956.725,-18.555,-441.406,51.270,23.926,0.000,0
1542731956.729,-30.762,-397.461,40.039,15.625,0.000,0
1542731956.733,-29.297,-368.652,41.504,17.090,0.000,0
1542731956.737,-23.926,-708.496,55.176,21.484,0.000,0
1542731956.741,-20.508,-519.531,62.012,31.250,0.000,0
1542731956.745,-9.766,-176.270,65.430,37.109,0.000,0
1542731956.749,-2.441,-254.395,67.383,29.785,0.000,0
1542731956.753,-22.461,-304.199,59.082,26.367,0.000,0
1542731956.757,-26.855,-140.625,44.922,30.762,0.000,0
1542731956.761,-15.625,-91.797,32.715,37.598,0.000,0
1542731956.764,-6.348,-229.980,27.344,37.598,0.000,0
1542731956.768,-10.254,-288.574,44.922,28.320,0.000,0
1542731956.772,-24.414,-356.934,61.035,9.277,0.000,0
1542731956.776,-25.391,-251.953,62.500,8.301,0.000,0
1542731956.780,-26.855,-511.719,69.824,22.461,0.000,0
1542731956.784,-24.902,-639.648,69.824,20.996,0.000,0
1542731956.788,-23.438,-234.863,59.082,11.230,0.000,0
1542731956.792,-20.996,-215.820,53.711,16.602,0.000,0
1542731956.796,-17.090,-374.023,52.734,19.043,0.000,0
1542731956.800,-24.414,-461.426,43.945,13.184,0.000,0
1542731956.804,-21.484,-297.852,38.086,6.836,0.000,0
1542731956.807,-34.180,-287.598,41.992,-7.812,0.000,0
1542731956.811,-49.316,-462.891,54.199,-15.137,0.000,0
1542731956.815,-38.574,-366.699,61.523,-9.766,0.000,0
1542731956.819,-40.039,-476.562,45.898,-9.766,0.000,0
1542731956.823,-43.945,-739.746,36.133,-23.438,0.000,0
1542731956.827,-34.668,-817.871,33.691,-22.461,0.000,0
1542731956.831,-29.297,-504.395,26.855,-14.648,0.000,0
1542731956.835,-29.785,-247.070,38.574,-15.137,0.000,0
1542731956.839,-28.809,-407.715,50.781,-19.043,0.000,0
1542731956.843,-35.645,-528.320,45.898,-20.508,0.000,0
1542731956.847,-36.621,-401.855,42.480,-20.020,0.000,0
1542731956.850,-34.668,-383.301,33.203,-22.949,0.000,0
1542731956.854,-41.504,-501.953,29.785,-13.672,0.000,0
1542731956.858,-31.250,-601.074,32.715,-13.672,0.000,0
1542731956.862,-27.832,-622.559,37.109,-10.254,0.000,0
1542731956.866,-25.391,-628.906,36.621,-10.742,0.000,0
1542731956.870,-24.902,-848.633,37.598,-10.742,0.000,0
1542731956.874,-25.391,-820.801,44.434,-12.207,0.000,0
1542731956.878,-21.973,-461.914,44.434,-9.766,0.000,0
1542731956.882,-15.137,-455.078,41.504,-0.488,0.000,0
1542731956.886,-21.484,-603.516,46.875,6.836,0.000,0
1542731956.889,-22.461,-540.527,45.410,20.508,0.000,0
1542731956.893,-12.207,-422.852,41.504,19.043,0.000,0
1542731956.897,-14.648,-524.902,40.039,10.742,0.000,0
1542731956.901,-6.836,-596.680,24.902,18.066,0.000,0
1542731956.905,-0.488,-479.492,25.391,17.578,0.000,0
1542731956.909,-10.254,-467.773,46.875,9.277,0.000,0
1542731956.913,-20.020,-708.496,54.199,3.418,0.000,0
1542731956.917,-19.531,-982.422,47.852,-2.930,0.000,0
1542731956.921,-18.066,-753.418,34.668,5.371,0.000,0
1542731956.925,-9.766,-477.539,32.715,17.090,0.000,0
1542731956.929,-0.977,-559.082,42.480,39.062,0.000,0
1542731956.932,3.906,-638.184,37.109,49.316,0.000,0
1542731956.936,0.977,-590.332,43.457,24.902,0.000,0
1542731956.940,-20.508,-491.699,51.758,-2.441,0.000,0
1542731956.944,-32.227,-510.254,48.340,3.906,0.000,0
1542731956.948,-28.320,-552.734,52.734,27.344,0.000,0
1542731956.952,-24.414,-475.586,44.434,21.484,0.000,0
1542731956.956,-25.879,-486.816,31.738,19.531,0.000,0
1542731956.960,-13.184,-698.242,34.180,28.809,0.000,0
1542731956.964,-1.953,-675.293,41.504,35.156,0.000,0
1542731956.968,-10.742,-481.934,42.969,46.875,0.000,0
1542731956.972,0.000,-468.750,41.504,46.875,0.000,0
1542731956.975,12.207,-753.906,41.016,39.551,0.000,0
1542731956.979,4.395,-861.328,45.410,40.039,0.000,0
1542731956.983,-2.930,-531.250,53.711,40.039,0.000,0
1542731956.987,-7.812,-471.191,55.176,31.250,0.000,0
1542731956.991,-4.883,-580.078,46.875,29.785,0.000,0
1542731956.995,-4.395,-481.934,35.156,28.320,0.000,0
1542731956.999,-5.859,-409.180,26.855,24.902,0.000,0
1542731957.003,-6.348,-569.824,24.414,22.949,0.000,0
1542731957.007,-13.672,-807.129,30.762,14.160,0.000,0
1542731957.011,-7.324,-677.246,38.574,14.160,0.000,0
1542731957.014,5.371,-410.645,43.457,25.391,0.000,0
1542731957.018,11.230,-592.285,41.016,23.926,0.000,0
1542731957.022,10.254,-893.066,32.715,16.602,0.000,0
1542731957.026,2.441,-599.609,34.180,14.160,0.000,0
1542731957.030,-5.859,-377.441,31.250,6.348,0.000,0
1542731957.034,-7.324,-499.512,28.809,6.348,0.000,0
1542731957.038,-16.602,-637.695,33.203,10.254,0.000,0
1542731957.042,-20.508,-473.633,34.668,2.441,0.000,0
1542731957.046,-6.836,-333.496,39.551,5.859,0.000,0
1542731957.050,9.766,-454.590,41.992,24.414,0.000,0
1542731957.054,16.602,-625.977,37.109,28.809,0.000,0
1542731957.057,10.742,-655.762,34.180,19.531,0.000,0
1542731957.061,4.395,-405.762,34.180,19.043,0.000,0
1542731957.065,-0.488,-618.652,31.738,30.273,0.000,0
